Methods Information:
23.04.2024 13:22:19
<untitled>  
List:  Volume(ml)       Buffer    ml/min
01     0.00 to    5.00 BUFFER A     1.00
--------------------------------------------------
--------------------------------------------------
23.04.2024 13:33:58
<untitled>  
List:  Volume(ml)       Buffer    ml/min
01     0.00 to    5.00 BUFFER A     0.50
--------------------------------------------------
--------------------------------------------------
23.04.2024 13:49:22
<untitled>  
List:  Volume(ml)       Buffer    ml/min
01     0.00 to    5.00 BUFFER A     0.50
--------------------------------------------------
--------------------------------------------------
23.04.2024 13:59:55
<untitled>  
List:  Volume(ml)       Buffer    ml/min
01     0.00 to    5.00 BUFFER A     0.50
--------------------------------------------------
--------------------------------------------------
23.04.2024 14:06:49
<untitled>  
List:  Volume(ml)       Buffer    ml/min
01     0.00 to    5.00 BUFFER A     1.00
--------------------------------------------------
--------------------------------------------------
Time [min.]:	UV [A.U.]:	Conductivity [mS/cm]:	Events:		
0.000	0.0178	0.00	Start  0.00 min		
0.017	0.0178	0.00	End  5.01 min		
0.033	0.0177	0.00	Start  5.01 min		
0.050	0.0325	0.00	End  15.02 min		
0.067	0.0610	0.00	Start  15.02 min		
0.083	0.0762	0.00	End  25.03 min		
0.100	0.0454	0.00	Start  25.03 min		
0.117	0.0291	0.00	End  35.04 min		
0.133	0.0301	0.00	Start  35.04 min		
0.150	0.0310	0.00	End  40.05 min		
0.167	0.0307	0.00			
0.183	0.0582	0.00			
0.200	0.0543	0.00			
0.217	0.0262	0.00			
0.233	0.0938	0.00			
0.250	0.0899	0.00			
0.267	0.0279	0.00			
0.283	0.0248	0.00			
0.300	0.0314	0.00			
0.317	0.0444	0.00			
0.333	0.0349	0.00			
0.350	0.0127	0.00			
0.367	0.0019	0.00			
0.383	0.0022	0.00			
0.400	0.0024	0.00			
0.417	0.0025	0.00			
0.433	0.0027	0.00			
0.450	0.0029	0.00			
0.467	0.0031	0.00			
0.483	0.0033	0.00			
0.500	0.0035	0.00			
0.517	0.0034	0.00			
0.533	0.0032	0.00			
0.550	0.0029	0.00			
0.567	0.0024	0.00			
0.583	0.0020	0.00			
0.600	0.0016	0.00			
0.617	0.0012	0.00			
0.633	0.0008	0.00			
0.650	0.0005	0.00			
0.667	0.0003	0.00			
0.683	0.0001	0.00			
0.700	0.0000	0.00			
0.717	-0.0002	0.00			
0.733	-0.0003	0.00			
0.750	-0.0005	0.00			
0.767	-0.0006	0.00			
0.783	-0.0006	0.00			
0.800	-0.0006	0.00			
0.817	-0.0007	0.00			
0.833	-0.0008	0.00			
0.850	-0.0007	0.00			
0.867	-0.0008	0.00			
0.883	-0.0008	0.00			
0.900	-0.0009	0.00			
0.917	-0.0010	0.00			
0.933	-0.0010	0.00			
0.950	-0.0010	0.00			
0.967	-0.0009	0.00			
0.983	-0.0010	0.00			
1.000	-0.0011	0.00			
1.017	-0.0012	0.00			
1.033	-0.0011	0.00			
1.050	-0.0012	0.00			
1.067	-0.0013	0.00			
1.083	-0.0013	0.00			
1.100	-0.0012	0.00			
1.117	-0.0012	0.00			
1.133	-0.0012	0.00			
1.150	-0.0012	0.00			
1.167	-0.0012	0.00			
1.183	-0.0012	0.00			
1.200	-0.0012	0.00			
1.217	-0.0013	0.00			
1.233	-0.0013	0.00			
1.250	-0.0012	0.00			
1.267	-0.0013	0.00			
1.283	-0.0012	0.00			
1.300	-0.0012	0.00			
1.317	-0.0013	0.00			
1.333	-0.0012	0.00			
1.350	-0.0014	0.00			
1.367	-0.0014	0.00			
1.383	-0.0013	0.00			
1.400	-0.0014	0.00			
1.417	-0.0013	0.00			
1.433	-0.0013	0.00			
1.450	-0.0013	0.00			
1.467	-0.0013	0.00			
1.483	-0.0014	0.00			
1.500	-0.0014	0.00			
1.517	-0.0015	0.00			
1.533	-0.0016	0.00			
1.550	-0.0016	0.00			
1.567	-0.0016	0.00			
1.583	-0.0017	0.00			
1.600	-0.0017	0.00			
1.617	-0.0018	0.00			
1.633	-0.0018	0.00			
1.650	-0.0017	0.00			
1.667	-0.0017	0.00			
1.683	-0.0017	0.00			
1.700	-0.0017	0.00			
1.717	-0.0018	0.00			
1.733	-0.0018	0.00			
1.750	-0.0017	0.00			
1.767	-0.0017	0.00			
1.783	-0.0017	0.00			
1.800	-0.0017	0.00			
1.817	-0.0017	0.00			
1.833	-0.0016	0.00			
1.850	-0.0015	0.00			
1.867	-0.0014	0.00			
1.883	-0.0015	0.00			
1.900	-0.0015	0.00			
1.917	-0.0014	0.00			
1.933	-0.0014	0.00			
1.950	-0.0013	0.00			
1.967	-0.0012	0.00			
1.983	-0.0011	0.00			
2.000	-0.0009	0.00			
2.017	-0.0007	0.00			
2.033	-0.0005	0.00			
2.050	-0.0003	0.00			
2.067	0.0000	0.00			
2.083	0.0003	0.00			
2.100	0.0007	0.00			
2.117	0.0011	0.00			
2.133	0.0015	0.00			
2.150	0.0020	0.00			
2.167	0.0026	0.00			
2.183	0.0033	0.10			
2.200	0.0038	0.36			
2.217	0.0042	0.73			
2.233	0.0048	1.29			
2.250	0.0055	2.02			
2.267	0.0062	3.11			
2.283	0.0068	4.70			
2.300	0.0072	6.51			
2.317	0.0077	9.16			
2.333	0.0082	12.73			
2.350	0.0084	16.40			
2.367	0.0087	20.62			
2.383	0.0091	25.26			
2.400	0.0096	29.36			
2.417	0.0099	33.30			
2.433	0.0102	38.71			
2.450	0.0105	43.70			
2.467	0.0107	51.08			
2.483	0.0109	57.64			
2.500	0.0110	62.03			
2.517	0.0112	70.40			
2.533	0.0114	75.01			
2.550	0.0113	80.06			
2.567	0.0114	84.19			
2.583	0.0115	89.26			
2.600	0.0117	93.53			
2.617	0.0117	96.05			
2.633	0.0118	98.39			
2.650	0.0119	100.89			
2.667	0.0120	104.60			
2.683	0.0120	106.01			
2.700	0.0120	108.24			
2.717	0.0119	110.69			
2.733	0.0118	113.22			
2.750	0.0119	114.90			
2.767	0.0119	115.24			
2.783	0.0119	114.95			
2.800	0.0118	117.12			
2.817	0.0118	118.68			
2.833	0.0118	119.02			
2.850	0.0118	119.22			
2.867	0.0116	120.62			
2.883	0.0115	121.23			
2.900	0.0115	121.71			
2.917	0.0115	122.22			
2.933	0.0116	122.86			
2.950	0.0115	123.15			
2.967	0.0115	123.33			
2.983	0.0115	123.56			
3.000	0.0114	123.78			
3.017	0.0113	124.03			
3.033	0.0111	124.29			
3.050	0.0111	124.29			
3.067	0.0110	124.50			
3.083	0.0110	124.61			
3.100	0.0111	124.60			
3.117	0.0110	124.73			
3.133	0.0109	124.78			
3.150	0.0110	124.89			
3.167	0.0109	125.02			
3.183	0.0109	124.99			
3.200	0.0109	125.08			
3.217	0.0107	125.23			
3.233	0.0107	125.20			
3.250	0.0107	125.25			
3.267	0.0106	125.18			
3.283	0.0106	125.20			
3.300	0.0107	125.04			
3.317	0.0106	125.10			
3.333	0.0105	125.05			
3.350	0.0105	124.87			
3.367	0.0104	124.78			
3.383	0.0104	124.92			
3.400	0.0102	124.97			
3.417	0.0103	124.71			
3.433	0.0104	124.97			
3.450	0.0103	124.91			
3.467	0.0104	124.55			
3.483	0.0103	124.45			
3.500	0.0102	124.45			
3.517	0.0101	124.42			
3.533	0.0101	124.47			
3.550	0.0101	124.26			
3.567	0.0100	124.11			
3.583	0.0100	124.13			
3.600	0.0100	124.09			
3.617	0.0100	124.04			
3.633	0.0099	123.77			
3.650	0.0098	123.24			
3.667	0.0098	123.09			
3.683	0.0099	123.00			
3.700	0.0098	123.13			
3.717	0.0097	123.14			
3.733	0.0097	122.90			
3.750	0.0097	122.88			
3.767	0.0096	122.71			
3.783	0.0096	122.58			
3.800	0.0097	122.43			
3.817	0.0097	122.43			
3.833	0.0097	122.58			
3.850	0.0097	122.67			
3.867	0.0096	122.48			
3.883	0.0095	122.30			
3.900	0.0095	122.46			
3.917	0.0095	122.14			
3.933	0.0095	122.02			
3.950	0.0095	122.06			
3.967	0.0094	122.04			
3.983	0.0093	121.96			
4.000	0.0093	121.96			
4.017	0.0093	121.68			
4.033	0.0093	121.78			
4.050	0.0093	121.86			
4.067	0.0092	121.47			
4.083	0.0092	121.52			
4.100	0.0092	121.23			
4.117	0.0093	121.21			
4.133	0.0093	121.31			
4.150	0.0092	121.00			
4.167	0.0092	120.44			
4.183	0.0092	120.10			
4.200	0.0091	120.06			
4.217	0.0091	120.32			
4.233	0.0091	120.79			
4.250	0.0091	120.32			
4.267	0.0091	119.95			
4.283	0.0090	119.59			
4.300	0.0090	119.87			
4.317	0.0090	120.24			
4.333	0.0090	120.25			
4.350	0.0090	120.14			
4.367	0.0090	120.21			
4.383	0.0089	120.17			
4.400	0.0089	120.11			
4.417	0.0088	119.90			
4.433	0.0088	119.80			
4.450	0.0088	119.51			
4.467	0.0088	119.22			
4.483	0.0089	118.99			
4.500	0.0090	119.09			
4.517	0.0089	118.99			
4.533	0.0088	119.15			
4.550	0.0087	119.28			
4.567	0.0087	119.38			
4.583	0.0087	119.19			
4.600	0.0087	119.07			
4.617	0.0087	119.11			
4.633	0.0086	119.32			
4.650	0.0087	119.30			
4.667	0.0087	118.93			
4.683	0.0087	118.90			
4.700	0.0087	118.94			
4.717	0.0087	118.94			
4.733	0.0087	118.81			
4.750	0.0087	118.75			
4.767	0.0087	118.83			
4.783	0.0086	119.46			
4.800	0.0085	119.41			
4.817	0.0085	119.27			
4.833	0.0086	118.88			
4.850	0.0086	118.67			
4.867	0.0086	118.70			
4.883	0.0086	118.49			
4.900	0.0086	118.46			
4.917	0.0086	118.25			
4.933	0.0086	118.17			
4.950	0.0085	118.10			
4.967	0.0085	118.20			
4.983	0.0086	118.38			
5.000	0.0085	118.13			
5.017	0.0083	118.72			
5.033	0.0084	118.34			
5.050	0.0084	115.95			
5.067	0.0082	114.82			
5.083	0.0081	115.08			
5.100	0.0083	115.66			
5.117	0.0084	116.39			
5.133	0.0085	116.37			
5.150	0.0085	116.20			
5.167	0.0086	116.18			
5.183	0.0086	116.10			
5.200	0.0087	116.18			
5.217	0.0087	116.23			
5.233	0.0085	116.15			
5.250	0.0086	116.21			
5.267	0.0087	116.07			
5.283	0.0087	115.87			
5.300	0.0087	115.81			
5.317	0.0086	115.94			
5.333	0.0085	116.12			
5.350	0.0086	116.05			
5.367	0.0086	116.02			
5.383	0.0086	115.95			
5.400	0.0086	115.94			
5.417	0.0087	115.92			
5.433	0.0087	115.89			
5.450	0.0087	115.91			
5.467	0.0088	115.92			
5.483	0.0089	115.92			
5.500	0.0089	115.75			
5.517	0.0090	115.73			
5.533	0.0090	115.75			
5.550	0.0089	115.76			
5.567	0.0090	115.76			
5.583	0.0090	115.79			
5.600	0.0089	115.83			
5.617	0.0088	115.86			
5.633	0.0088	115.88			
5.650	0.0088	115.91			
5.667	0.0088	115.94			
5.683	0.0088	115.96			
5.700	0.0088	115.96			
5.717	0.0087	115.96			
5.733	0.0086	115.97			
5.750	0.0087	116.02			
5.767	0.0086	116.05			
5.783	0.0085	116.13			
5.800	0.0085	116.20			
5.817	0.0085	116.21			
5.833	0.0084	116.23			
5.850	0.0084	116.26			
5.867	0.0084	116.26			
5.883	0.0085	116.29			
5.900	0.0085	115.99			
5.917	0.0084	116.02			
5.933	0.0084	116.02			
5.950	0.0085	116.02			
5.967	0.0084	116.06			
5.983	0.0084	116.04			
6.000	0.0083	116.06			
6.017	0.0083	116.02			
6.033	0.0083	116.02			
6.050	0.0083	116.01			
6.067	0.0082	115.97			
6.083	0.0083	116.01			
6.100	0.0083	115.97			
6.117	0.0082	115.93			
6.133	0.0082	115.89			
6.150	0.0083	115.83			
6.167	0.0083	115.80			
6.183	0.0082	115.77			
6.200	0.0083	115.70			
6.217	0.0082	115.51			
6.233	0.0082	115.46			
6.250	0.0081	115.45			
6.267	0.0081	115.43			
6.283	0.0081	115.43			
6.300	0.0081	115.43			
6.317	0.0081	115.41			
6.333	0.0082	115.41			
6.350	0.0082	115.43			
6.367	0.0081	115.40			
6.383	0.0081	115.40			
6.400	0.0081	115.38			
6.417	0.0080	115.38			
6.433	0.0080	115.40			
6.450	0.0080	115.38			
6.467	0.0081	115.37			
6.483	0.0081	115.37			
6.500	0.0081	115.35			
6.517	0.0081	115.35			
6.533	0.0080	115.33			
6.550	0.0081	115.33			
6.567	0.0081	115.33			
6.583	0.0081	115.32			
6.600	0.0080	115.32			
6.617	0.0080	115.33			
6.633	0.0080	115.33			
6.650	0.0081	115.33			
6.667	0.0081	115.33			
6.683	0.0081	115.33			
6.700	0.0081	115.30			
6.717	0.0080	115.30			
6.733	0.0080	115.30			
6.750	0.0081	115.27			
6.767	0.0081	115.28			
6.783	0.0081	115.28			
6.800	0.0081	115.28			
6.817	0.0082	115.28			
6.833	0.0082	115.27			
6.850	0.0083	115.25			
6.867	0.0083	115.05			
6.883	0.0085	115.05			
6.900	0.0087	115.05			
6.917	0.0090	115.03			
6.933	0.0095	115.05			
6.950	0.0100	115.05			
6.967	0.0107	115.01			
6.983	0.0114	115.03			
7.000	0.0122	115.03			
7.017	0.0131	115.05			
7.033	0.0140	115.03			
7.050	0.0149	115.05			
7.067	0.0161	115.06			
7.083	0.0172	115.06			
7.100	0.0185	115.08			
7.117	0.0200	115.08			
7.133	0.0214	115.06			
7.150	0.0230	115.06			
7.167	0.0249	115.05			
7.183	0.0268	115.03			
7.200	0.0289	115.03			
7.217	0.0308	115.00			
7.233	0.0329	115.00			
7.250	0.0350	114.98			
7.267	0.0369	114.97			
7.283	0.0389	114.93			
7.300	0.0406	114.90			
7.317	0.0422	114.89			
7.333	0.0437	114.85			
7.350	0.0449	114.84			
7.367	0.0459	114.82			
7.383	0.0465	114.79			
7.400	0.0472	114.77			
7.417	0.0476	114.76			
7.433	0.0481	114.74			
7.450	0.0484	114.72			
7.467	0.0485	114.71			
7.483	0.0489	114.69			
7.500	0.0490	114.68			
7.517	0.0493	114.66			
7.533	0.0495	114.64			
7.550	0.0495	114.63			
7.567	0.0499	114.61			
7.583	0.0498	114.60			
7.600	0.0499	114.58			
7.617	0.0500	114.58			
7.633	0.0500	114.55			
7.650	0.0502	114.53			
7.667	0.0503	114.53			
7.683	0.0505	114.52			
7.700	0.0507	114.50			
7.717	0.0508	114.48			
7.733	0.0511	114.48			
7.750	0.0513	114.47			
7.767	0.0516	114.45			
7.783	0.0519	114.44			
7.800	0.0523	114.37			
7.817	0.0529	114.29			
7.833	0.0534	114.28			
7.850	0.0540	114.24			
7.867	0.0546	114.26			
7.883	0.0552	113.96			
7.900	0.0559	114.24			
7.917	0.0566	113.96			
7.933	0.0573	113.94			
7.950	0.0580	113.94			
7.967	0.0587	113.93			
7.983	0.0594	113.91			
8.000	0.0602	113.91			
8.017	0.0609	113.90			
8.033	0.0617	113.90			
8.050	0.0623	113.90			
8.067	0.0629	113.88			
8.083	0.0636	113.90			
8.100	0.0640	113.88			
8.117	0.0646	113.88			
8.133	0.0650	113.88			
8.150	0.0654	113.86			
8.167	0.0659	113.88			
8.183	0.0660	113.86			
8.200	0.0663	113.85			
8.217	0.0665	113.85			
8.233	0.0666	113.85			
8.250	0.0667	113.85			
8.267	0.0668	113.85			
8.283	0.0669	113.83			
8.300	0.0670	113.85			
8.317	0.0669	113.83			
8.333	0.0671	113.83			
8.350	0.0672	113.83			
8.367	0.0672	113.83			
8.383	0.0671	113.83			
8.400	0.0672	113.82			
8.417	0.0673	113.82			
8.433	0.0674	113.82			
8.450	0.0674	113.80			
8.467	0.0676	113.82			
8.483	0.0676	113.82			
8.500	0.0676	113.82			
8.517	0.0677	113.82			
8.533	0.0679	113.80			
8.550	0.0681	113.80			
8.567	0.0682	113.78			
8.583	0.0682	113.80			
8.600	0.0682	113.80			
8.617	0.0682	113.78			
8.633	0.0683	113.78			
8.650	0.0684	113.78			
8.667	0.0684	113.77			
8.683	0.0685	113.78			
8.700	0.0686	113.77			
8.717	0.0687	113.78			
8.733	0.0687	113.78			
8.750	0.0687	113.78			
8.767	0.0687	113.78			
8.783	0.0689	113.77			
8.800	0.0689	113.77			
8.817	0.0689	113.77			
8.833	0.0688	113.75			
8.850	0.0689	113.77			
8.867	0.0690	113.77			
8.883	0.0690	113.78			
8.900	0.0689	113.77			
8.917	0.0689	113.77			
8.933	0.0688	113.77			
8.950	0.0689	113.77			
8.967	0.0689	113.77			
8.983	0.0689	113.77			
9.000	0.0689	113.77			
9.017	0.0689	113.77			
9.033	0.0688	113.77			
9.050	0.0687	113.77			
9.067	0.0686	113.77			
9.083	0.0686	113.77			
9.100	0.0686	113.77			
9.117	0.0685	113.77			
9.133	0.0685	113.77			
9.150	0.0684	113.78			
9.167	0.0683	113.78			
9.183	0.0682	113.78			
9.200	0.0681	113.78			
9.217	0.0680	113.77			
9.233	0.0679	113.78			
9.250	0.0678	113.78			
9.267	0.0677	113.78			
9.283	0.0676	113.78			
9.300	0.0675	113.78			
9.317	0.0673	113.78			
9.333	0.0670	113.78			
9.350	0.0668	113.78			
9.367	0.0667	113.80			
9.383	0.0665	113.59			
9.400	0.0663	113.61			
9.417	0.0661	113.59			
9.433	0.0659	113.61			
9.450	0.0657	113.61			
9.467	0.0654	113.61			
9.483	0.0652	113.63			
9.500	0.0648	113.61			
9.517	0.0646	113.63			
9.533	0.0644	113.61			
9.550	0.0641	113.61			
9.567	0.0639	113.63			
9.583	0.0637	113.63			
9.600	0.0633	113.63			
9.617	0.0630	113.63			
9.633	0.0627	113.63			
9.650	0.0624	113.63			
9.667	0.0620	113.63			
9.683	0.0616	113.63			
9.700	0.0614	113.64			
9.717	0.0611	113.64			
9.733	0.0607	113.66			
9.750	0.0603	113.66			
9.767	0.0599	113.64			
9.783	0.0595	113.66			
9.800	0.0592	113.64			
9.817	0.0588	113.66			
9.833	0.0585	113.66			
9.850	0.0580	113.64			
9.867	0.0576	113.64			
9.883	0.0572	113.64			
9.900	0.0569	113.64			
9.917	0.0565	113.64			
9.933	0.0563	113.64			
9.950	0.0560	113.64			
9.967	0.0557	113.64			
9.983	0.0554	113.64			
10.000	0.0552	113.64			
10.017	0.0549	113.63			
10.033	0.0547	113.63			
10.050	0.0545	113.63			
10.067	0.0543	113.63			
10.083	0.0541	113.61			
10.100	0.0537	113.61			
10.117	0.0534	113.63			
10.133	0.0530	113.63			
10.150	0.0526	113.63			
10.167	0.0522	113.61			
10.183	0.0518	113.59			
10.200	0.0513	113.61			
10.217	0.0509	113.59			
10.233	0.0503	113.59			
10.250	0.0499	113.59			
10.267	0.0495	113.59			
10.283	0.0491	113.59			
10.300	0.0486	113.58			
10.317	0.0482	113.56			
10.333	0.0478	113.56			
10.350	0.0474	113.56			
10.367	0.0470	113.56			
10.383	0.0466	113.56			
10.400	0.0461	113.55			
10.417	0.0457	113.56			
10.433	0.0453	113.55			
10.450	0.0448	113.55			
10.467	0.0446	113.55			
10.483	0.0443	113.51			
10.500	0.0439	113.51			
10.517	0.0435	113.51			
10.533	0.0431	113.51			
10.550	0.0428	113.50			
10.567	0.0424	113.50			
10.583	0.0421	113.50			
10.600	0.0417	113.48			
10.617	0.0414	113.48			
10.633	0.0411	113.48			
10.650	0.0407	113.47			
10.667	0.0403	113.28			
10.683	0.0400	113.45			
10.700	0.0397	113.45			
10.717	0.0393	113.25			
10.733	0.0390	113.43			
10.750	0.0388	113.26			
10.767	0.0385	113.43			
10.783	0.0382	113.23			
10.800	0.0378	113.25			
10.817	0.0374	113.21			
10.833	0.0372	113.23			
10.850	0.0369	113.23			
10.867	0.0365	113.23			
10.883	0.0361	113.23			
10.900	0.0358	113.21			
10.917	0.0356	113.21			
10.933	0.0353	113.21			
10.950	0.0349	113.20			
10.967	0.0346	113.20			
10.983	0.0344	113.18			
11.000	0.0341	113.18			
11.017	0.0337	113.18			
11.033	0.0335	113.18			
11.050	0.0332	113.17			
11.067	0.0329	113.17			
11.083	0.0326	113.17			
11.100	0.0324	113.17			
11.117	0.0321	113.15			
11.133	0.0317	113.15			
11.150	0.0315	113.13			
11.167	0.0312	113.13			
11.183	0.0311	113.12			
11.200	0.0309	113.12			
11.217	0.0306	113.12			
11.233	0.0303	113.12			
11.250	0.0301	113.10			
11.267	0.0298	113.10			
11.283	0.0295	113.10			
11.300	0.0293	113.09			
11.317	0.0290	113.07			
11.333	0.0288	113.07			
11.350	0.0287	113.07			
11.367	0.0284	113.07			
11.383	0.0281	113.07			
11.400	0.0278	113.07			
11.417	0.0276	113.05			
11.433	0.0273	113.05			
11.450	0.0271	113.05			
11.467	0.0268	113.04			
11.483	0.0267	113.05			
11.500	0.0265	113.04			
11.517	0.0263	113.02			
11.533	0.0261	113.01			
11.550	0.0258	113.01			
11.567	0.0256	113.01			
11.583	0.0254	113.01			
11.600	0.0252	112.99			
11.617	0.0250	112.99			
11.633	0.0247	112.97			
11.650	0.0245	112.97			
11.667	0.0243	112.96			
11.683	0.0242	112.97			
11.700	0.0240	112.96			
11.717	0.0238	112.96			
11.733	0.0237	112.96			
11.750	0.0235	112.94			
11.767	0.0233	112.94			
11.783	0.0230	112.93			
11.800	0.0229	112.93			
11.817	0.0228	112.93			
11.833	0.0226	112.91			
11.850	0.0223	112.93			
11.867	0.0221	112.91			
11.883	0.0220	112.89			
11.900	0.0219	112.89			
11.917	0.0217	112.89			
11.933	0.0216	112.89			
11.950	0.0215	112.89			
11.967	0.0212	112.88			
11.983	0.0211	112.86			
12.000	0.0210	112.88			
12.017	0.0209	112.88			
12.033	0.0209	112.86			
12.050	0.0207	112.86			
12.067	0.0207	112.86			
12.083	0.0206	112.86			
12.100	0.0204	112.85			
12.117	0.0202	112.85			
12.133	0.0200	112.83			
12.150	0.0200	112.83			
12.167	0.0198	112.83			
12.183	0.0197	112.83			
12.200	0.0196	112.83			
12.217	0.0194	112.81			
12.233	0.0192	112.81			
12.250	0.0191	112.81			
12.267	0.0190	112.80			
12.283	0.0188	112.81			
12.300	0.0186	112.80			
12.317	0.0185	112.81			
12.333	0.0184	112.80			
12.350	0.0183	112.78			
12.367	0.0181	112.78			
12.383	0.0180	112.78			
12.400	0.0179	112.78			
12.417	0.0178	112.78			
12.433	0.0177	112.78			
12.450	0.0175	112.77			
12.467	0.0173	112.77			
12.483	0.0173	112.75			
12.500	0.0171	112.75			
12.517	0.0171	112.75			
12.533	0.0169	112.75			
12.550	0.0168	112.75			
12.567	0.0166	112.75			
12.583	0.0166	112.75			
12.600	0.0165	112.74			
12.617	0.0165	112.72			
12.633	0.0163	112.72			
12.650	0.0163	112.72			
12.667	0.0162	112.72			
12.683	0.0161	112.72			
12.700	0.0160	112.72			
12.717	0.0160	112.72			
12.733	0.0159	112.72			
12.750	0.0158	112.72			
12.767	0.0157	112.72			
12.783	0.0157	112.70			
12.800	0.0155	112.72			
12.817	0.0154	112.70			
12.833	0.0153	112.70			
12.850	0.0153	112.69			
12.867	0.0152	112.69			
12.883	0.0151	112.69			
12.900	0.0151	112.69			
12.917	0.0150	112.67			
12.933	0.0150	112.69			
12.950	0.0149	112.67			
12.967	0.0148	112.67			
12.983	0.0147	112.66			
13.000	0.0146	112.66			
13.017	0.0145	112.66			
13.033	0.0145	112.67			
13.050	0.0144	112.67			
13.067	0.0144	112.66			
13.083	0.0143	112.66			
13.100	0.0143	112.64			
13.117	0.0141	112.66			
13.133	0.0141	112.64			
13.150	0.0141	112.62			
13.167	0.0140	112.64			
13.183	0.0139	112.64			
13.200	0.0138	112.64			
13.217	0.0138	112.64			
13.233	0.0138	112.64			
13.250	0.0136	112.64			
13.267	0.0136	112.62			
13.283	0.0136	112.62			
13.300	0.0135	112.62			
13.317	0.0134	112.61			
13.333	0.0133	112.62			
13.350	0.0134	112.64			
13.367	0.0134	112.62			
13.383	0.0133	112.62			
13.400	0.0132	112.61			
13.417	0.0131	112.61			
13.433	0.0131	112.61			
13.450	0.0130	112.59			
13.467	0.0129	112.61			
13.483	0.0129	112.59			
13.500	0.0129	112.59			
13.517	0.0129	112.61			
13.533	0.0129	112.59			
13.550	0.0128	112.58			
13.567	0.0128	112.59			
13.583	0.0127	112.59			
13.600	0.0127	112.58			
13.617	0.0127	112.58			
13.633	0.0127	112.56			
13.650	0.0126	112.56			
13.667	0.0125	112.56			
13.683	0.0123	112.56			
13.700	0.0122	112.54			
13.717	0.0122	112.56			
13.733	0.0123	112.54			
13.750	0.0122	112.53			
13.767	0.0122	112.53			
13.783	0.0122	112.54			
13.800	0.0121	112.53			
13.817	0.0120	112.53			
13.833	0.0120	112.51			
13.850	0.0120	112.51			
13.867	0.0120	112.50			
13.883	0.0120	112.50			
13.900	0.0118	112.51			
13.917	0.0119	112.50			
13.933	0.0119	112.51			
13.950	0.0118	112.50			
13.967	0.0117	112.50			
13.983	0.0116	112.50			
14.000	0.0116	112.50			
14.017	0.0116	112.50			
14.033	0.0116	112.48			
14.050	0.0116	112.48			
14.067	0.0115	112.48			
14.083	0.0114	112.46			
14.100	0.0114	112.48			
14.117	0.0114	112.48			
14.133	0.0114	112.46			
14.150	0.0113	112.46			
14.167	0.0113	112.45			
14.183	0.0113	112.45			
14.200	0.0113	112.45			
14.217	0.0113	112.43			
14.233	0.0113	112.45			
14.250	0.0113	112.45			
14.267	0.0113	112.45			
14.283	0.0112	112.45			
14.300	0.0110	112.43			
14.317	0.0110	112.43			
14.333	0.0110	112.43			
14.350	0.0110	112.43			
14.367	0.0110	112.43			
14.383	0.0110	112.43			
14.400	0.0109	112.43			
14.417	0.0109	112.43			
14.433	0.0109	112.42			
14.450	0.0108	112.43			
14.467	0.0108	112.42			
14.483	0.0108	112.42			
14.500	0.0108	112.42			
14.517	0.0107	112.43			
14.533	0.0105	112.42			
14.550	0.0105	112.40			
14.567	0.0106	112.42			
14.583	0.0107	112.42			
14.600	0.0107	112.40			
14.617	0.0107	112.40			
14.633	0.0107	112.38			
14.650	0.0107	112.38			
14.667	0.0107	112.40			
14.683	0.0106	112.38			
14.700	0.0106	112.40			
14.717	0.0106	112.38			
14.733	0.0106	112.38			
14.750	0.0106	112.40			
14.767	0.0106	112.38			
14.783	0.0105	112.37			
14.800	0.0106	112.35			
14.817	0.0106	112.37			
14.833	0.0105	112.37			
14.850	0.0104	112.37			
14.867	0.0103	112.37			
14.883	0.0103	112.35			
14.900	0.0103	112.35			
14.917	0.0103	112.29			
14.933	0.0103	112.19			
14.950	0.0102	112.19			
14.967	0.0102	112.18			
14.983	0.0102	112.19			
15.000	0.0102	112.19			
15.017	0.0101	112.21			
15.033	0.0103	111.72			
15.050	0.0104	111.58			
15.067	0.0102	111.42			
15.083	0.0102	111.42			
15.100	0.0104	111.40			
15.117	0.0106	111.40			
15.133	0.0106	111.40			
15.150	0.0104	111.40			
15.167	0.0103	111.40			
15.183	0.0103	111.40			
15.200	0.0104	111.40			
15.217	0.0104	111.38			
15.233	0.0105	111.38			
15.250	0.0106	111.38			
15.267	0.0107	111.38			
15.283	0.0106	111.37			
15.300	0.0105	111.38			
15.317	0.0104	111.38			
15.333	0.0104	111.38			
15.350	0.0104	111.40			
15.367	0.0105	111.42			
15.383	0.0105	111.42			
15.400	0.0105	111.43			
15.417	0.0104	111.43			
15.433	0.0104	111.45			
15.450	0.0105	111.45			
15.467	0.0105	111.46			
15.483	0.0104	111.48			
15.500	0.0104	111.48			
15.517	0.0105	111.50			
15.533	0.0106	111.51			
15.550	0.0105	111.53			
15.567	0.0106	111.53			
15.583	0.0106	111.54			
15.600	0.0105	111.58			
15.617	0.0104	111.59			
15.633	0.0105	111.59			
15.650	0.0106	111.62			
15.667	0.0105	111.64			
15.683	0.0105	111.66			
15.700	0.0105	111.69			
15.717	0.0104	111.69			
15.733	0.0104	111.72			
15.750	0.0103	111.75			
15.767	0.0104	111.75			
15.783	0.0104	111.78			
15.800	0.0104	111.80			
15.817	0.0105	111.83			
15.833	0.0107	111.86			
15.850	0.0108	111.88			
15.867	0.0108	111.90			
15.883	0.0106	111.93			
15.900	0.0106	111.94			
15.917	0.0107	111.96			
15.933	0.0107	111.96			
15.950	0.0107	111.99			
15.967	0.0107	112.02			
15.983	0.0106	111.84			
16.000	0.0105	111.87			
16.017	0.0105	111.89			
16.033	0.0105	111.90			
16.050	0.0104	111.92			
16.067	0.0103	111.92			
16.083	0.0102	111.93			
16.100	0.0102	111.97			
16.117	0.0102	111.98			
16.133	0.0100	112.00			
16.150	0.0100	112.01			
16.167	0.0100	112.03			
16.183	0.0101	112.06			
16.200	0.0100	112.06			
16.217	0.0100	112.09			
16.233	0.0099	112.09			
16.250	0.0098	112.11			
16.267	0.0098	112.13			
16.283	0.0098	112.14			
16.300	0.0098	112.17			
16.317	0.0097	112.17			
16.333	0.0097	112.19			
16.350	0.0096	112.20			
16.367	0.0096	112.20			
16.383	0.0096	112.24			
16.400	0.0095	112.24			
16.417	0.0096	112.25			
16.433	0.0095	112.27			
16.450	0.0095	112.10			
16.467	0.0094	112.11			
16.483	0.0095	112.13			
16.500	0.0095	112.15			
16.517	0.0095	112.15			
16.533	0.0095	112.16			
16.550	0.0094	112.18			
16.567	0.0094	112.18			
16.583	0.0095	112.19			
16.600	0.0096	112.21			
16.617	0.0095	112.21			
16.633	0.0094	112.23			
16.650	0.0093	112.24			
16.667	0.0093	112.26			
16.683	0.0092	112.27			
16.700	0.0092	112.27			
16.717	0.0091	112.29			
16.733	0.0092	112.30			
16.750	0.0093	112.30			
16.767	0.0093	112.32			
16.783	0.0092	112.32			
16.800	0.0092	112.32			
16.817	0.0092	112.34			
16.833	0.0092	112.27			
16.850	0.0092	112.35			
16.867	0.0092	112.32			
16.883	0.0092	112.35			
16.900	0.0092	112.21			
16.917	0.0092	112.18			
16.933	0.0091	112.27			
16.950	0.0092	112.27			
16.967	0.0092	112.27			
16.983	0.0092	112.27			
17.000	0.0091	112.43			
17.017	0.0090	112.53			
17.033	0.0090	112.56			
17.050	0.0091	112.56			
17.067	0.0092	112.58			
17.083	0.0092	112.58			
17.100	0.0091	112.59			
17.117	0.0090	112.59			
17.133	0.0090	112.59			
17.150	0.0090	112.61			
17.167	0.0089	112.61			
17.183	0.0089	112.62			
17.200	0.0089	112.62			
17.217	0.0090	112.64			
17.233	0.0090	112.45			
17.250	0.0090	112.45			
17.267	0.0089	112.45			
17.283	0.0089	112.45			
17.300	0.0089	112.47			
17.317	0.0090	112.47			
17.333	0.0090	112.47			
17.350	0.0090	112.48			
17.367	0.0091	112.48			
17.383	0.0090	112.48			
17.400	0.0090	112.48			
17.417	0.0089	112.48			
17.433	0.0090	112.48			
17.450	0.0089	112.48			
17.467	0.0090	112.48			
17.483	0.0090	112.50			
17.500	0.0089	112.48			
17.517	0.0089	112.50			
17.533	0.0090	112.50			
17.550	0.0091	112.50			
17.567	0.0091	112.50			
17.583	0.0090	112.50			
17.600	0.0090	112.50			
17.617	0.0091	112.50			
17.633	0.0090	112.48			
17.650	0.0090	112.50			
17.667	0.0091	112.50			
17.683	0.0092	112.50			
17.700	0.0091	112.50			
17.717	0.0091	112.48			
17.733	0.0090	112.50			
17.750	0.0090	112.50			
17.767	0.0090	112.50			
17.783	0.0089	112.50			
17.800	0.0089	112.50			
17.817	0.0089	112.52			
17.833	0.0089	112.50			
17.850	0.0089	112.50			
17.867	0.0090	112.50			
17.883	0.0090	112.48			
17.900	0.0089	112.50			
17.917	0.0088	112.50			
17.933	0.0089	112.50			
17.950	0.0089	112.50			
17.967	0.0089	112.50			
17.983	0.0090	112.50			
18.000	0.0090	112.50			
18.017	0.0090	112.48			
18.033	0.0091	112.52			
18.050	0.0091	112.50			
18.067	0.0091	112.50			
18.083	0.0091	112.52			
18.100	0.0091	112.50			
18.117	0.0091	112.50			
18.133	0.0091	112.50			
18.150	0.0091	112.50			
18.167	0.0090	112.52			
18.183	0.0091	112.50			
18.200	0.0092	112.52			
18.217	0.0092	112.50			
18.233	0.0092	112.52			
18.250	0.0092	112.52			
18.267	0.0092	112.50			
18.283	0.0092	112.52			
18.300	0.0093	112.52			
18.317	0.0094	112.52			
18.333	0.0093	112.52			
18.350	0.0092	112.50			
18.367	0.0093	112.50			
18.383	0.0093	112.52			
18.400	0.0094	112.52			
18.417	0.0094	112.52			
18.433	0.0094	112.50			
18.450	0.0095	112.52			
18.467	0.0094	112.52			
18.483	0.0094	112.50			
18.500	0.0095	112.52			
18.517	0.0095	112.52			
18.533	0.0096	112.52			
18.550	0.0095	112.52			
18.567	0.0094	112.52			
18.583	0.0094	112.52			
18.600	0.0095	112.52			
18.617	0.0096	112.52			
18.633	0.0096	112.53			
18.650	0.0095	112.25			
18.667	0.0096	112.25			
18.683	0.0097	112.25			
18.700	0.0097	112.25			
18.717	0.0097	112.25			
18.733	0.0097	112.23			
18.750	0.0098	112.23			
18.767	0.0098	112.23			
18.783	0.0099	112.23			
18.800	0.0099	112.25			
18.817	0.0099	112.25			
18.833	0.0099	112.25			
18.850	0.0099	112.25			
18.867	0.0099	112.25			
18.883	0.0099	112.25			
18.900	0.0101	112.25			
18.917	0.0101	112.23			
18.933	0.0101	112.25			
18.950	0.0101	112.23			
18.967	0.0102	112.25			
18.983	0.0103	112.23			
19.000	0.0103	112.23			
19.017	0.0102	112.23			
19.033	0.0102	112.21			
19.050	0.0102	112.21			
19.067	0.0103	112.20			
19.083	0.0103	112.20			
19.100	0.0102	112.21			
19.117	0.0104	112.20			
19.133	0.0105	112.18			
19.150	0.0104	112.17			
19.167	0.0104	112.17			
19.183	0.0106	112.15			
19.200	0.0107	112.13			
19.217	0.0109	112.13			
19.233	0.0110	112.12			
19.250	0.0111	112.12			
19.267	0.0112	112.10			
19.283	0.0113	112.09			
19.300	0.0115	112.09			
19.317	0.0116	112.07			
19.333	0.0119	112.06			
19.350	0.0121	112.04			
19.367	0.0122	112.02			
19.383	0.0123	112.02			
19.400	0.0123	112.01			
19.417	0.0126	111.99			
19.433	0.0125	111.96			
19.450	0.0126	111.94			
19.467	0.0128	111.94			
19.483	0.0127	111.93			
19.500	0.0128	111.91			
19.517	0.0127	111.90			
19.533	0.0125	111.82			
19.550	0.0128	111.69			
19.567	0.0126	111.67			
19.583	0.0127	111.64			
19.600	0.0129	111.61			
19.617	0.0126	111.58			
19.633	0.0130	111.55			
19.650	0.0127	111.53			
19.667	0.0126	111.47			
19.683	0.0129	111.42			
19.700	0.0125	111.36			
19.717	0.0128	111.31			
19.733	0.0130	111.25			
19.750	0.0127	111.17			
19.767	0.0131	111.07			
19.783	0.0127	110.99			
19.800	0.0127	110.86			
19.817	0.0131	110.77			
19.833	0.0125	110.63			
19.850	0.0129	110.48			
19.867	0.0127	110.25			
19.883	0.0126	110.09			
19.900	0.0131	109.93			
19.917	0.0125	109.80			
19.933	0.0130	109.58			
19.950	0.0129	109.39			
19.967	0.0128	109.20			
19.983	0.0129	108.86			
20.000	0.0124	108.56			
20.017	0.0124	108.33			
20.033	0.0124	108.04			
20.050	0.0121	107.77			
20.067	0.0126	107.34			
20.083	0.0124	107.02			
20.100	0.0125	106.67			
20.117	0.0127	106.36			
20.133	0.0123	105.85			
20.150	0.0127	105.40			
20.167	0.0124	104.98			
20.183	0.0124	104.47			
20.200	0.0128	104.10			
20.217	0.0124	103.69			
20.233	0.0129	103.07			
20.250	0.0126	102.52			
20.267	0.0125	101.98			
20.283	0.0128	101.47			
20.300	0.0125	100.85			
20.317	0.0128	100.20			
20.333	0.0127	99.55			
20.350	0.0125	98.98			
20.367	0.0127	98.32			
20.383	0.0125	97.58			
20.400	0.0128	96.88			
20.417	0.0128	96.29			
20.433	0.0125	95.45			
20.450	0.0127	94.71			
20.467	0.0125	93.96			
20.483	0.0125	93.07			
20.500	0.0125	92.31			
20.517	0.0123	91.56			
20.533	0.0124	90.61			
20.550	0.0124	89.77			
20.567	0.0124	88.94			
20.583	0.0126	88.04			
20.600	0.0124	87.16			
20.617	0.0125	86.24			
20.633	0.0125	85.32			
20.650	0.0124	84.36			
20.667	0.0124	83.53			
20.683	0.0124	82.51			
20.700	0.0124	81.50			
20.717	0.0125	80.70			
20.733	0.0124	79.66			
20.750	0.0124	78.67			
20.767	0.0125	77.80			
20.783	0.0124	76.69			
20.800	0.0125	75.80			
20.817	0.0124	74.91			
20.833	0.0124	73.83			
20.850	0.0124	72.96			
20.867	0.0123	72.10			
20.883	0.0124	71.08			
20.900	0.0123	70.21			
20.917	0.0124	69.29			
20.933	0.0124	68.27			
20.950	0.0122	67.37			
20.967	0.0122	66.54			
20.983	0.0122	65.53			
21.000	0.0122	64.67			
21.017	0.0124	63.92			
21.033	0.0123	62.99			
21.050	0.0124	62.13			
21.067	0.0124	61.40			
21.083	0.0123	60.48			
21.100	0.0124	59.72			
21.117	0.0122	59.02			
21.133	0.0122	58.13			
21.150	0.0121	57.37			
21.167	0.0121	56.69			
21.183	0.0121	55.92			
21.200	0.0120	55.24			
21.217	0.0121	54.65			
21.233	0.0121	53.92			
21.250	0.0120	53.13			
21.267	0.0120	52.53			
21.283	0.0119	51.83			
21.300	0.0119	51.15			
21.317	0.0119	50.62			
21.333	0.0117	49.89			
21.350	0.0118	49.27			
21.367	0.0118	48.78			
21.383	0.0119	48.11			
21.400	0.0119	47.57			
21.417	0.0118	47.08			
21.433	0.0118	46.45			
21.450	0.0116	45.94			
21.467	0.0116	45.35			
21.483	0.0116	44.81			
21.500	0.0115	44.34			
21.517	0.0116	43.89			
21.533	0.0115	43.42			
21.550	0.0115	42.89			
21.567	0.0115	42.51			
21.583	0.0115	42.00			
21.600	0.0116	41.45			
21.617	0.0115	41.07			
21.633	0.0113	40.56			
21.650	0.0113	40.15			
21.667	0.0112	39.78			
21.683	0.0113	39.32			
21.700	0.0113	38.99			
21.717	0.0113	38.59			
21.733	0.0114	38.16			
21.750	0.0113	37.78			
21.767	0.0113	37.34			
21.783	0.0113	36.94			
21.800	0.0112	36.56			
21.817	0.0112	36.24			
21.833	0.0110	35.89			
21.850	0.0110	35.51			
21.867	0.0111	35.27			
21.883	0.0110	34.85			
21.900	0.0111	34.56			
21.917	0.0111	34.29			
21.933	0.0110	33.86			
21.950	0.0110	33.57			
21.967	0.0109	33.24			
21.983	0.0110	32.84			
22.000	0.0110	32.64			
22.017	0.0110	32.30			
22.033	0.0111	32.10			
22.050	0.0109	31.76			
22.067	0.0109	31.56			
22.083	0.0110	31.26			
22.100	0.0109	30.94			
22.117	0.0110	30.70			
22.133	0.0109	30.45			
22.150	0.0108	30.11			
22.167	0.0109	29.97			
22.183	0.0109	29.62			
22.200	0.0110	29.41			
22.217	0.0109	29.14			
22.233	0.0109	28.83			
22.250	0.0108	28.65			
22.267	0.0109	28.38			
22.283	0.0109	28.16			
22.300	0.0108	27.97			
22.317	0.0108	27.75			
22.333	0.0108	27.50			
22.350	0.0108	27.26			
22.367	0.0108	27.10			
22.383	0.0107	26.86			
22.400	0.0108	26.59			
22.417	0.0108	26.45			
22.433	0.0107	26.20			
22.450	0.0108	25.99			
22.467	0.0106	25.80			
22.483	0.0107	25.51			
22.500	0.0107	25.36			
22.517	0.0107	25.15			
22.533	0.0108	24.93			
22.550	0.0106	24.74			
22.567	0.0106	24.52			
22.583	0.0105	24.34			
22.600	0.0106	24.12			
22.617	0.0106	23.98			
22.633	0.0105	23.77			
22.650	0.0105	23.57			
22.667	0.0105	23.45			
22.683	0.0105	23.26			
22.700	0.0105	23.07			
22.717	0.0103	22.93			
22.733	0.0103	22.73			
22.750	0.0103	22.57			
22.767	0.0104	22.39			
22.783	0.0106	22.20			
22.800	0.0103	22.06			
22.817	0.0104	21.90			
22.833	0.0104	21.77			
22.850	0.0103	21.65			
22.867	0.0103	21.44			
22.883	0.0100	21.27			
22.900	0.0102	21.05			
22.917	0.0102	20.90			
22.933	0.0102	20.74			
22.950	0.0104	20.59			
22.967	0.0101	20.44			
22.983	0.0102	20.27			
23.000	0.0102	20.16			
23.017	0.0101	20.03			
23.033	0.0103	19.87			
23.050	0.0099	19.75			
23.067	0.0100	19.59			
23.083	0.0101	19.44			
23.100	0.0099	19.32			
23.117	0.0101	19.19			
23.133	0.0099	19.05			
23.150	0.0100	18.91			
23.167	0.0101	18.80			
23.183	0.0098	18.68			
23.200	0.0100	18.56			
23.217	0.0098	18.45			
23.233	0.0100	18.30			
23.250	0.0100	18.16			
23.267	0.0097	18.07			
23.283	0.0099	17.92			
23.300	0.0097	17.83			
23.317	0.0097	17.72			
23.333	0.0098	17.57			
23.350	0.0096	17.46			
23.367	0.0098	17.35			
23.383	0.0097	17.21			
23.400	0.0097	17.08			
23.417	0.0099	16.96			
23.433	0.0095	16.83			
23.450	0.0096	16.73			
23.467	0.0095	16.64			
23.483	0.0094	16.54			
23.500	0.0096	16.43			
23.517	0.0093	16.37			
23.533	0.0095	16.26			
23.550	0.0095	16.15			
23.567	0.0093	16.07			
23.583	0.0095	15.97			
23.600	0.0093	15.88			
23.617	0.0095	15.80			
23.633	0.0095	15.69			
23.650	0.0093	15.61			
23.667	0.0095	15.55			
23.683	0.0091	15.47			
23.700	0.0092	15.37			
23.717	0.0094	15.29			
23.733	0.0093	15.18			
23.750	0.0097	15.10			
23.767	0.0093	15.04			
23.783	0.0093	14.96			
23.800	0.0094	14.85			
23.817	0.0091	14.79			
23.833	0.0094	14.71			
23.850	0.0091	14.63			
23.867	0.0094	14.56			
23.883	0.0094	14.47			
23.900	0.0092	14.39			
23.917	0.0095	14.33			
23.933	0.0092	14.23			
23.950	0.0093	14.17			
23.967	0.0093	14.09			
23.983	0.0091	14.03			
24.000	0.0094	13.95			
24.017	0.0091	13.88			
24.033	0.0092	13.82			
24.050	0.0093	13.74			
24.067	0.0090	13.69			
24.083	0.0094	13.61			
24.100	0.0091	13.52			
24.117	0.0092	13.45			
24.133	0.0094	13.36			
24.150	0.0091	13.28			
24.167	0.0095	13.20			
24.183	0.0091	13.11			
24.200	0.0092	13.06			
24.217	0.0093	12.98			
24.233	0.0092	12.90			
24.250	0.0095	12.82			
24.267	0.0092	12.76			
24.283	0.0094	12.71			
24.300	0.0094	12.65			
24.317	0.0091	12.58			
24.333	0.0095	12.52			
24.350	0.0092	12.47			
24.367	0.0093	12.41			
24.383	0.0093	12.33			
24.400	0.0091	12.28			
24.417	0.0093	12.22			
24.433	0.0090	12.17			
24.450	0.0092	12.09			
24.467	0.0091	12.04			
24.483	0.0089	11.98			
24.500	0.0092	11.93			
24.517	0.0090	11.89			
24.533	0.0091	11.82			
24.550	0.0091	11.77			
24.567	0.0090	11.74			
24.583	0.0092	11.68			
24.600	0.0090	11.62			
24.617	0.0091	11.55			
24.633	0.0090	11.51			
24.650	0.0088	11.46			
24.667	0.0091	11.43			
24.683	0.0090	11.36			
24.700	0.0091	11.32			
24.717	0.0091	11.28			
24.733	0.0089	11.22			
24.750	0.0091	11.17			
24.767	0.0089	11.14			
24.783	0.0089	11.08			
24.800	0.0089	11.03			
24.817	0.0088	10.98			
24.833	0.0090	10.95			
24.850	0.0088	10.90			
24.867	0.0089	10.87			
24.883	0.0089	10.82			
24.900	0.0089	10.79			
24.917	0.0092	10.74			
24.933	0.0090	10.70			
24.950	0.0091	10.65			
24.967	0.0091	10.63			
24.983	0.0090	10.59			
25.000	0.0091	10.54			
25.017	0.0089	10.52			
25.033	0.0092	10.48			
25.050	0.0092	10.72			
25.067	0.0090	11.48			
25.083	0.0087	11.51			
25.100	0.0084	11.08			
25.117	0.0083	10.73			
25.133	0.0083	10.38			
25.150	0.0083	10.14			
25.167	0.0083	9.95			
25.183	0.0086	9.76			
25.200	0.0087	9.71			
25.217	0.0090	9.75			
25.233	0.0091	9.76			
25.250	0.0091	9.78			
25.267	0.0093	9.76			
25.283	0.0092	9.70			
25.300	0.0092	9.62			
25.317	0.0091	9.57			
25.333	0.0090	9.56			
25.350	0.0091	9.56			
25.367	0.0090	9.57			
25.383	0.0089	9.56			
25.400	0.0089	9.56			
25.417	0.0089	9.54			
25.433	0.0089	9.51			
25.450	0.0089	9.52			
25.467	0.0089	9.54			
25.483	0.0089	9.56			
25.500	0.0088	9.57			
25.517	0.0088	9.57			
25.533	0.0087	9.57			
25.550	0.0087	9.56			
25.567	0.0088	9.52			
25.583	0.0087	9.49			
25.600	0.0087	9.46			
25.617	0.0087	9.45			
25.633	0.0087	9.41			
25.650	0.0087	9.40			
25.667	0.0087	9.40			
25.683	0.0087	9.35			
25.700	0.0087	9.32			
25.717	0.0087	9.29			
25.733	0.0086	9.24			
25.750	0.0086	9.22			
25.767	0.0086	9.21			
25.783	0.0086	9.16			
25.800	0.0085	9.11			
25.817	0.0085	9.10			
25.833	0.0085	9.06			
25.850	0.0085	9.02			
25.867	0.0086	9.00			
25.883	0.0085	8.95			
25.900	0.0084	8.94			
25.917	0.0084	8.91			
25.933	0.0084	8.87			
25.950	0.0084	8.84			
25.967	0.0084	8.81			
25.983	0.0085	8.80			
26.000	0.0085	8.75			
26.017	0.0084	8.72			
26.033	0.0084	8.68			
26.050	0.0084	8.67			
26.067	0.0084	8.64			
26.083	0.0084	8.61			
26.100	0.0083	8.57			
26.117	0.0082	8.54			
26.133	0.0081	8.53			
26.150	0.0081	8.49			
26.167	0.0081	8.45			
26.183	0.0080	8.42			
26.200	0.0080	8.40			
26.217	0.0080	8.39			
26.233	0.0079	8.34			
26.250	0.0080	8.32			
26.267	0.0081	8.31			
26.283	0.0080	8.27			
26.300	0.0079	8.24			
26.317	0.0078	8.24			
26.333	0.0079	8.21			
26.350	0.0079	8.18			
26.367	0.0079	8.16			
26.383	0.0078	8.15			
26.400	0.0078	8.13			
26.417	0.0078	8.10			
26.433	0.0078	8.08			
26.450	0.0078	8.05			
26.467	0.0078	8.02			
26.483	0.0077	8.01			
26.500	0.0077	7.97			
26.517	0.0078	7.96			
26.533	0.0078	7.96			
26.550	0.0078	7.93			
26.567	0.0078	7.91			
26.583	0.0078	7.91			
26.600	0.0077	7.88			
26.617	0.0077	7.86			
26.633	0.0077	7.83			
26.650	0.0078	7.82			
26.667	0.0077	7.82			
26.683	0.0077	7.80			
26.700	0.0077	7.78			
26.717	0.0077	7.77			
26.733	0.0077	7.75			
26.750	0.0077	7.74			
26.767	0.0078	7.72			
26.783	0.0078	7.70			
26.800	0.0078	7.69			
26.817	0.0078	7.67			
26.833	0.0078	7.66			
26.850	0.0078	7.64			
26.867	0.0078	7.63			
26.883	0.0079	7.61			
26.900	0.0079	7.59			
26.917	0.0078	7.58			
26.933	0.0078	7.55			
26.950	0.0078	7.55			
26.967	0.0078	7.53			
26.983	0.0078	7.51			
27.000	0.0078	7.50			
27.017	0.0078	7.48			
27.033	0.0078	7.47			
27.050	0.0077	7.47			
27.067	0.0077	7.44			
27.083	0.0078	7.42			
27.100	0.0078	7.39			
27.117	0.0078	7.37			
27.133	0.0078	7.36			
27.150	0.0077	7.34			
27.167	0.0077	7.34			
27.183	0.0078	7.33			
27.200	0.0078	7.31			
27.217	0.0078	7.29			
27.233	0.0077	7.28			
27.250	0.0077	7.26			
27.267	0.0078	7.23			
27.283	0.0078	7.21			
27.300	0.0078	7.21			
27.317	0.0077	7.20			
27.333	0.0077	7.20			
27.350	0.0078	7.18			
27.367	0.0077	7.15			
27.383	0.0077	7.15			
27.400	0.0078	7.12			
27.417	0.0077	7.12			
27.433	0.0077	7.11			
27.450	0.0076	7.09			
27.467	0.0076	7.06			
27.483	0.0077	7.08			
27.500	0.0077	7.06			
27.517	0.0077	7.04			
27.533	0.0078	7.03			
27.550	0.0078	7.03			
27.567	0.0078	7.01			
27.583	0.0077	7.00			
27.600	0.0077	6.98			
27.617	0.0077	6.97			
27.633	0.0078	6.97			
27.650	0.0078	6.95			
27.667	0.0078	6.95			
27.683	0.0077	6.93			
27.700	0.0077	6.92			
27.717	0.0078	6.90			
27.733	0.0078	6.89			
27.750	0.0079	6.90			
27.767	0.0078	6.89			
27.783	0.0078	6.87			
27.800	0.0079	6.87			
27.817	0.0079	6.85			
27.833	0.0079	6.84			
27.850	0.0079	6.82			
27.867	0.0080	6.82			
27.883	0.0079	6.82			
27.900	0.0080	6.82			
27.917	0.0080	6.79			
27.933	0.0081	6.79			
27.950	0.0080	6.79			
27.967	0.0080	6.78			
27.983	0.0081	6.78			
28.000	0.0081	6.76			
28.017	0.0081	6.74			
28.033	0.0080	6.73			
28.050	0.0080	6.73			
28.067	0.0080	6.73			
28.083	0.0081	6.71			
28.100	0.0081	6.70			
28.117	0.0082	6.70			
28.133	0.0082	6.70			
28.150	0.0082	6.70			
28.167	0.0082	6.70			
28.183	0.0083	6.68			
28.200	0.0082	6.68			
28.217	0.0082	6.67			
28.233	0.0083	6.67			
28.250	0.0084	6.67			
28.267	0.0083	6.65			
28.283	0.0083	6.65			
28.300	0.0083	6.63			
28.317	0.0083	6.63			
28.333	0.0083	6.63			
28.350	0.0084	6.63			
28.367	0.0083	6.63			
28.383	0.0084	6.60			
28.400	0.0084	6.60			
28.417	0.0084	6.60			
28.433	0.0084	6.59			
28.450	0.0084	6.60			
28.467	0.0084	6.59			
28.483	0.0084	6.59			
28.500	0.0085	6.59			
28.517	0.0085	6.57			
28.533	0.0085	6.55			
28.550	0.0084	6.55			
28.567	0.0083	6.55			
28.583	0.0084	6.55			
28.600	0.0084	6.55			
28.617	0.0085	6.54			
28.633	0.0085	6.54			
28.650	0.0085	6.54			
28.667	0.0084	6.52			
28.683	0.0084	6.52			
28.700	0.0084	6.54			
28.717	0.0085	6.52			
28.733	0.0084	6.51			
28.750	0.0084	6.51			
28.767	0.0083	6.51			
28.783	0.0084	6.51			
28.800	0.0084	6.51			
28.817	0.0084	6.49			
28.833	0.0084	6.49			
28.850	0.0083	6.49			
28.867	0.0083	6.49			
28.883	0.0084	6.49			
28.900	0.0084	6.48			
28.917	0.0083	6.46			
28.933	0.0083	6.46			
28.950	0.0083	6.46			
28.967	0.0084	6.48			
28.983	0.0084	6.46			
29.000	0.0083	6.44			
29.017	0.0083	6.44			
29.033	0.0083	6.44			
29.050	0.0085	6.44			
29.067	0.0086	6.44			
29.083	0.0086	6.44			
29.100	0.0087	6.44			
29.117	0.0088	6.43			
29.133	0.0089	6.43			
29.150	0.0091	6.41			
29.167	0.0094	6.41			
29.183	0.0097	6.41			
29.200	0.0102	6.41			
29.217	0.0105	6.41			
29.233	0.0109	6.40			
29.250	0.0111	6.40			
29.267	0.0111	6.40			
29.283	0.0115	6.40			
29.300	0.0115	6.40			
29.317	0.0115	6.40			
29.333	0.0119	6.40			
29.350	0.0115	6.40			
29.367	0.0117	6.40			
29.383	0.0120	6.40			
29.400	0.0117	6.38			
29.417	0.0123	6.38			
29.433	0.0121	6.37			
29.450	0.0120	6.37			
29.467	0.0125	6.38			
29.483	0.0119	6.38			
29.500	0.0126	6.37			
29.517	0.0128	6.37			
29.533	0.0124	6.35			
29.550	0.0133	6.35			
29.567	0.0128	6.35			
29.583	0.0131	6.35			
29.600	0.0138	6.35			
29.617	0.0125	6.33			
29.633	0.0139	6.32			
29.650	0.0133	6.32			
29.667	0.0132	6.30			
29.683	0.0146	6.30			
29.700	0.0132	6.30			
29.717	0.0146	6.29			
29.733	0.0144	6.30			
29.750	0.0138	6.27			
29.767	0.0152	6.25			
29.783	0.0141	6.24			
29.800	0.0149	6.24			
29.817	0.0155	6.24			
29.833	0.0144	6.21			
29.850	0.0160	6.19			
29.867	0.0153	6.19			
29.883	0.0154	6.18			
29.900	0.0168	6.14			
29.917	0.0154	6.13			
29.933	0.0167	6.11			
29.950	0.0167	6.10			
29.967	0.0165	6.08			
29.983	0.0181	6.05			
30.000	0.0171	6.03			
30.017	0.0181	6.00			
30.033	0.0181	5.97			
30.050	0.0168	5.95			
30.067	0.0187	5.92			
30.083	0.0173	5.89			
30.100	0.0179	5.88			
30.117	0.0194	5.84			
30.133	0.0174	5.80			
30.150	0.0195	5.76			
30.167	0.0181	5.73			
30.183	0.0177	5.70			
30.200	0.0185	5.67			
30.217	0.0161	5.62			
30.233	0.0179	5.58			
30.250	0.0174	5.54			
30.267	0.0165	5.51			
30.283	0.0190	5.48			
30.300	0.0168	5.43			
30.317	0.0184	5.39			
30.333	0.0184	5.32			
30.350	0.0170	5.26			
30.367	0.0188	5.23			
30.383	0.0160	5.15			
30.400	0.0165	5.07			
30.417	0.0171	5.01			
30.433	0.0153	4.94			
30.450	0.0171	4.90			
30.467	0.0153	4.83			
30.483	0.0159	4.77			
30.500	0.0165	4.72			
30.517	0.0143	4.64			
30.533	0.0164	4.58			
30.550	0.0150	4.52			
30.567	0.0144	4.45			
30.583	0.0154	4.41			
30.600	0.0134	4.34			
30.617	0.0145	4.28			
30.633	0.0138	4.20			
30.650	0.0138	4.15			
30.667	0.0149	4.11			
30.683	0.0124	4.04			
30.700	0.0138	3.98			
30.717	0.0137	3.92			
30.733	0.0126	3.84			
30.750	0.0136	3.79			
30.767	0.0116	3.74			
30.783	0.0127	3.68			
30.800	0.0125	3.62			
30.817	0.0118	3.55			
30.833	0.0134	3.49			
30.850	0.0110	3.44			
30.867	0.0119	3.38			
30.883	0.0126	3.33			
30.900	0.0115	3.29			
30.917	0.0124	3.24			
30.933	0.0107	3.17			
30.950	0.0112	3.13			
30.967	0.0117	3.08			
30.983	0.0105	3.02			
31.000	0.0118	2.99			
31.017	0.0103	2.92			
31.033	0.0104	2.87			
31.050	0.0115	2.83			
31.067	0.0105	2.80			
31.083	0.0112	2.73			
31.100	0.0102	2.70			
31.117	0.0096	2.65			
31.133	0.0107	2.61			
31.150	0.0094	2.54			
31.167	0.0102	2.50			
31.183	0.0097	2.45			
31.200	0.0091	2.42			
31.217	0.0104	2.38			
31.233	0.0096	2.34			
31.250	0.0099	2.29			
31.267	0.0101	2.27			
31.283	0.0090	2.21			
31.300	0.0099	2.18			
31.317	0.0082	2.15			
31.333	0.0086	2.10			
31.350	0.0087	2.07			
31.367	0.0081	2.04			
31.383	0.0087	1.99			
31.400	0.0079	1.97			
31.417	0.0083	1.93			
31.433	0.0090	1.90			
31.450	0.0080	1.85			
31.467	0.0086	1.83			
31.483	0.0073	1.78			
31.500	0.0074	1.75			
31.517	0.0075	1.72			
31.533	0.0066	1.69			
31.550	0.0073	1.64			
31.567	0.0064	1.63			
31.583	0.0069	1.58			
31.600	0.0075	1.55			
31.617	0.0067	1.48			
31.633	0.0073	1.47			
31.650	0.0062	1.45			
31.667	0.0055	1.44			
31.683	0.0059	1.39			
31.700	0.0052	1.37			
31.717	0.0059	1.34			
31.733	0.0054	1.30			
31.750	0.0056	1.26			
31.767	0.0067	1.25			
31.783	0.0062	1.22			
31.800	0.0062	1.18			
31.817	0.0052	1.15			
31.833	0.0045	1.12			
31.850	0.0060	1.11			
31.867	0.0059	1.07			
31.883	0.0061	1.04			
31.900	0.0060	1.01			
31.917	0.0046	0.98			
31.933	0.0057	0.95			
31.950	0.0054	0.92			
31.967	0.0051	0.90			
31.983	0.0054	0.88			
32.000	0.0045	0.87			
32.017	0.0050	0.84			
32.033	0.0046	0.82			
32.050	0.0047	0.81			
32.067	0.0054	0.79			
32.083	0.0044	0.76			
32.100	0.0054	0.74			
32.117	0.0047	0.73			
32.133	0.0039	0.71			
32.150	0.0041	0.71			
32.167	0.0033	0.66			
32.183	0.0039	0.65			
32.200	0.0037	0.65			
32.217	0.0039	0.63			
32.233	0.0045	0.62			
32.250	0.0038	0.60			
32.267	0.0042	0.58			
32.283	0.0040	0.57			
32.300	0.0034	0.55			
32.317	0.0038	0.55			
32.333	0.0029	0.54			
32.350	0.0035	0.52			
32.367	0.0038	0.50			
32.383	0.0037	0.47			
32.400	0.0043	0.47			
32.417	0.0037	0.44			
32.433	0.0037	0.43			
32.450	0.0039	0.41			
32.467	0.0035	0.41			
32.483	0.0038	0.39			
32.500	0.0035	0.39			
32.517	0.0036	0.38			
32.533	0.0040	0.36			
32.550	0.0034	0.36			
32.567	0.0039	0.35			
32.583	0.0033	0.33			
32.600	0.0033	0.32			
32.617	0.0035	0.30			
32.633	0.0029	0.28			
32.650	0.0035	0.27			
32.667	0.0029	0.27			
32.683	0.0029	0.25			
32.700	0.0031	0.24			
32.717	0.0024	0.24			
32.733	0.0031	0.22			
32.750	0.0024	0.22			
32.767	0.0025	0.20			
32.783	0.0028	0.19			
32.800	0.0021	0.19			
32.817	0.0025	0.17			
32.833	0.0020	0.16			
32.850	0.0019	0.16			
32.867	0.0021	0.14			
32.883	0.0017	0.13			
32.900	0.0022	0.13			
32.917	0.0020	0.11			
32.933	0.0019	0.11			
32.950	0.0023	0.09			
32.967	0.0018	0.08			
32.983	0.0020	0.08			
33.000	0.0018	0.06			
33.017	0.0016	0.05			
33.033	0.0018	0.05			
33.050	0.0015	0.03			
33.067	0.0017	0.03			
33.083	0.0017	0.02			
33.100	0.0014	0.02			
33.117	0.0018	0.00			
33.133	0.0015	0.00			
33.150	0.0015	0.00			
33.167	0.0015	0.00			
33.183	0.0013	0.00			
33.200	0.0016	0.00			
33.217	0.0014	0.00			
33.233	0.0013	0.00			
33.250	0.0015	0.00			
33.267	0.0011	0.00			
33.283	0.0014	0.00			
33.300	0.0013	0.00			
33.317	0.0013	0.00			
33.333	0.0014	0.00			
33.350	0.0011	0.00			
33.367	0.0012	0.00			
33.383	0.0010	0.00			
33.400	0.0010	0.00			
33.417	0.0013	0.00			
33.433	0.0011	0.00			
33.450	0.0011	0.00			
33.467	0.0010	0.00			
33.483	0.0009	0.00			
33.500	0.0009	0.00			
33.517	0.0009	0.00			
33.533	0.0009	0.00			
33.550	0.0007	0.00			
33.567	0.0007	0.00			
33.583	0.0009	0.00			
33.600	0.0008	0.00			
33.617	0.0009	0.00			
33.633	0.0008	0.00			
33.650	0.0007	0.00			
33.667	0.0006	0.00			
33.683	0.0006	0.00			
33.700	0.0006	0.00			
33.717	0.0006	0.00			
33.733	0.0006	0.00			
33.750	0.0005	0.00			
33.767	0.0005	0.00			
33.783	0.0003	0.00			
33.800	0.0003	0.00			
33.817	0.0002	0.00			
33.833	0.0002	0.00			
33.850	0.0002	0.00			
33.867	0.0001	0.00			
33.883	0.0002	0.00			
33.900	0.0001	0.00			
33.917	0.0001	0.00			
33.933	0.0000	0.00			
33.950	0.0000	0.00			
33.967	0.0000	0.00			
33.983	-0.0003	0.00			
34.000	-0.0002	0.00			
34.017	-0.0004	0.00			
34.033	-0.0004	0.00			
34.050	-0.0003	0.00			
34.067	-0.0004	0.00			
34.083	-0.0003	0.00			
34.100	-0.0004	0.00			
34.117	-0.0005	0.00			
34.133	-0.0003	0.00			
34.150	-0.0006	0.00			
34.167	-0.0002	0.00			
34.183	-0.0006	0.00			
34.200	-0.0006	0.00			
34.217	-0.0003	0.00			
34.233	-0.0006	0.00			
34.250	0.0000	0.00			
34.267	-0.0005	0.00			
34.283	-0.0002	0.00			
34.300	0.0000	0.00			
34.317	-0.0007	0.00			
34.333	0.0001	0.00			
34.350	-0.0005	0.00			
34.367	-0.0002	0.00			
34.383	0.0000	0.00			
34.400	-0.0005	0.00			
34.417	0.0006	0.00			
34.433	-0.0004	0.00			
34.450	0.0002	0.00			
34.467	0.0002	0.00			
34.483	-0.0004	0.00			
34.500	0.0008	0.00			
34.517	-0.0003	0.00			
34.533	0.0004	0.00			
34.550	0.0002	0.00			
34.567	-0.0003	0.00			
34.583	0.0008	0.00			
34.600	-0.0001	0.00			
34.617	0.0007	0.00			
34.633	0.0005	0.00			
34.650	0.0000	0.00			
34.667	0.0006	0.00			
34.683	-0.0003	0.00			
34.700	0.0001	0.00			
34.717	-0.0001	0.00			
34.733	-0.0003	0.00			
34.750	0.0002	0.00			
34.767	-0.0005	0.00			
34.783	0.0001	0.00			
34.800	-0.0003	0.00			
34.817	-0.0006	0.00			
34.833	-0.0002	0.00			
34.850	-0.0008	0.00			
34.867	-0.0004	0.00			
34.883	-0.0007	0.00			
34.900	-0.0008	0.00			
34.917	-0.0005	0.00			
34.933	-0.0009	0.00			
34.950	-0.0005	0.00			
34.967	-0.0008	0.00			
34.983	-0.0008	0.00			
35.000	-0.0005	0.00			
35.017	-0.0009	0.00			
35.033	-0.0007	0.00			
35.050	-0.0006	0.00			
35.067	-0.0008	0.00			
35.083	-0.0012	0.00			
35.100	-0.0016	0.00			
35.117	-0.0017	0.00			
35.133	-0.0017	0.00			
35.150	-0.0016	0.00			
35.167	-0.0016	0.00			
35.183	-0.0016	0.00			
35.200	-0.0017	0.00			
35.217	-0.0017	0.00			
35.233	-0.0017	0.00			
35.250	-0.0017	0.00			
35.267	-0.0017	0.00			
35.283	-0.0017	0.00			
35.300	-0.0016	0.00			
35.317	-0.0014	0.00			
35.333	-0.0014	0.00			
35.350	-0.0014	0.00			
35.367	-0.0014	0.00			
35.383	-0.0013	0.00			
35.400	-0.0012	0.00			
35.417	-0.0011	0.00			
35.433	-0.0011	0.00			
35.450	-0.0011	0.00			
35.467	-0.0011	0.00			
35.483	-0.0010	0.00			
35.500	-0.0010	0.00			
35.517	-0.0009	0.00			
35.533	-0.0007	0.00			
35.550	-0.0006	0.00			
35.567	-0.0005	0.00			
35.583	-0.0005	0.00			
35.600	-0.0004	0.00			
35.617	-0.0003	0.00			
35.633	-0.0004	0.00			
35.650	-0.0005	0.00			
35.667	-0.0006	0.00			
35.683	-0.0007	0.00			
35.700	-0.0008	0.00			
35.717	-0.0008	0.00			
35.733	-0.0009	0.00			
35.750	-0.0011	0.00			
35.767	-0.0012	0.00			
35.783	-0.0011	0.00			
35.800	-0.0011	0.00			
35.817	-0.0012	0.00			
35.833	-0.0013	0.00			
35.850	-0.0014	0.00			
35.867	-0.0013	0.00			
35.883	-0.0014	0.00			
35.900	-0.0015	0.00			
35.917	-0.0015	0.00			
35.933	-0.0014	0.00			
35.950	-0.0015	0.00			
35.967	-0.0015	0.00			
35.983	-0.0015	0.00			
36.000	-0.0015	0.00			
36.017	-0.0014	0.00			
36.033	-0.0014	0.00			
36.050	-0.0015	0.00			
36.067	-0.0015	0.00			
36.083	-0.0015	0.00			
36.100	-0.0015	0.00			
36.117	-0.0015	0.00			
36.133	-0.0014	0.00			
36.150	-0.0014	0.00			
36.167	-0.0015	0.00			
36.183	-0.0015	0.00			
36.200	-0.0015	0.00			
36.217	-0.0015	0.00			
36.233	-0.0016	0.00			
36.250	-0.0016	0.00			
36.267	-0.0015	0.00			
36.283	-0.0015	0.00			
36.300	-0.0016	0.00			
36.317	-0.0015	0.00			
36.333	-0.0014	0.00			
36.350	-0.0014	0.00			
36.367	-0.0013	0.00			
36.383	-0.0012	0.00			
36.400	-0.0011	0.00			
36.417	-0.0008	0.00			
36.433	-0.0007	0.00			
36.450	-0.0005	0.00			
36.467	-0.0004	0.00			
36.483	-0.0002	0.00			
36.500	0.0000	0.00			
36.517	0.0001	0.00			
36.533	0.0003	0.00			
36.550	0.0005	0.00			
36.567	0.0006	0.00			
36.583	0.0007	0.00			
36.600	0.0008	0.00			
36.617	0.0010	0.00			
36.633	0.0010	0.00			
36.650	0.0009	0.00			
36.667	0.0008	0.00			
36.683	0.0007	0.00			
36.700	0.0007	0.00			
36.717	0.0007	0.00			
36.733	0.0007	0.00			
36.750	0.0007	0.00			
36.767	0.0006	0.00			
36.783	0.0006	0.00			
36.800	0.0006	0.00			
36.817	0.0006	0.00			
36.833	0.0006	0.00			
36.850	0.0006	0.00			
36.867	0.0003	0.00			
36.883	0.0001	0.00			
36.900	0.0002	0.00			
36.917	0.0005	0.00			
36.933	0.0008	0.00			
36.950	0.0011	0.00			
36.967	0.0012	0.00			
36.983	0.0010	0.00			
37.000	0.0009	0.00			
37.017	0.0008	0.00			
37.033	0.0009	0.00			
37.050	0.0010	0.00			
37.067	0.0011	0.00			
37.083	0.0010	0.00			
37.100	0.0010	0.00			
37.117	0.0010	0.00			
37.133	0.0012	0.00			
37.150	0.0014	0.00			
37.167	0.0019	0.00			
37.183	0.0025	0.00			
37.200	0.0034	0.00			
37.217	0.0042	0.00			
37.233	0.0049	0.00			
37.250	0.0055	0.00			
37.267	0.0059	0.00			
37.283	0.0065	0.00			
37.300	0.0069	0.00			
37.317	0.0073	0.00			
37.333	0.0075	0.00			
37.350	0.0077	0.00			
37.367	0.0078	0.00			
37.383	0.0080	0.05			
37.400	0.0081	0.22			
37.417	0.0084	0.44			
37.433	0.0085	0.69			
37.450	0.0085	1.16			
37.467	0.0086	1.78			
37.483	0.0086	2.55			
37.500	0.0086	3.80			
37.517	0.0085	5.33			
37.533	0.0085	7.13			
37.550	0.0084	9.99			
37.567	0.0084	12.95			
37.583	0.0084	16.17			
37.600	0.0083	20.47			
37.617	0.0082	24.87			
37.633	0.0081	29.13			
37.650	0.0080	34.41			
37.667	0.0079	39.16			
37.683	0.0079	43.35			
37.700	0.0077	48.71			
37.717	0.0075	53.36			
37.733	0.0074	56.91			
37.750	0.0074	60.83			
37.767	0.0071	64.68			
37.783	0.0069	67.99			
37.800	0.0067	72.18			
37.817	0.0066	75.11			
37.833	0.0065	76.78			
37.850	0.0063	80.14			
37.867	0.0063	83.13			
37.883	0.0061	86.41			
37.900	0.0058	90.63			
37.917	0.0057	91.29			
37.933	0.0055	91.41			
37.950	0.0054	95.85			
37.967	0.0053	96.12			
37.983	0.0052	96.71			
38.000	0.0050	103.82			
38.017	0.0049	105.12			
38.033	0.0048	103.95			
38.050	0.0047	106.59			
38.067	0.0045	110.52			
38.083	0.0044	113.69			
38.100	0.0042	115.69			
38.117	0.0042	114.66			
38.133	0.0040	116.80			
38.150	0.0039	119.74			
38.167	0.0039	121.41			
38.183	0.0038	120.47			
38.200	0.0037	122.73			
38.217	0.0035	125.02			
38.233	0.0034	127.26			
38.250	0.0035	128.62			
38.267	0.0034	131.65			
38.283	0.0032	134.67			
38.300	0.0031	136.64			
38.317	0.0030	137.58			
38.333	0.0029	137.48			
38.350	0.0028	136.03			
38.367	0.0027	136.73			
38.383	0.0026	138.64			
38.400	0.0025	140.67			
38.417	0.0025	140.88			
38.433	0.0025	141.10			
38.450	0.0024	141.47			
38.467	0.0023	142.53			
38.483	0.0021	144.97			
38.500	0.0021	146.46			
38.517	0.0020	146.79			
38.533	0.0020	146.85			
38.550	0.0019	146.63			
38.567	0.0018	148.07			
38.583	0.0018	149.29			
38.600	0.0017	149.72			
38.617	0.0016	150.44			
38.633	0.0015	150.83			
38.650	0.0015	151.99			
38.667	0.0014	153.23			
38.683	0.0014	154.37			
38.700	0.0014	154.46			
38.717	0.0013	154.49			
38.733	0.0013	155.54			
38.750	0.0012	156.12			
38.767	0.0012	155.57			
38.783	0.0011	155.99			
38.800	0.0011	157.12			
38.817	0.0010	157.35			
38.833	0.0008	157.15			
38.850	0.0007	158.17			
38.867	0.0007	157.84			
38.883	0.0007	158.67			
38.900	0.0006	159.06			
38.917	0.0005	159.59			
38.933	0.0004	160.17			
38.950	0.0005	160.93			
38.967	0.0004	161.58			
38.983	0.0005	162.04			
39.000	0.0005	162.47			
39.017	0.0004	162.89			
39.033	0.0004	163.22			
39.050	0.0003	163.00			
39.067	0.0002	163.73			
39.083	0.0003	164.19			
39.100	0.0002	165.22			
39.117	0.0002	165.61			
39.133	0.0002	165.94			
39.150	0.0001	166.23			
39.167	0.0001	166.52			
39.183	0.0000	166.84			
39.200	-0.0001	167.20			
39.217	-0.0001	167.45			
39.233	-0.0002	167.66			
39.250	-0.0003	167.86			
39.267	-0.0003	168.03			
39.283	-0.0003	168.17			
39.300	-0.0003	168.31			
39.317	-0.0004	168.38			
39.333	-0.0004	168.45			
39.350	-0.0003	168.66			
39.367	-0.0004	168.88			
39.383	-0.0004	169.05			
39.400	-0.0005	169.25			
39.417	-0.0005	169.44			
39.433	-0.0005	169.02			
39.450	-0.0005	168.99			
39.467	-0.0006	168.89			
39.483	-0.0006	168.89			
39.500	-0.0005	170.21			
39.517	-0.0005	170.96			
39.533	-0.0006	171.07			
39.550	-0.0007	171.30			
39.567	-0.0007	171.50			
39.583	-0.0008	171.67			
39.600	-0.0008	171.89			
39.617	-0.0007	172.08			
39.633	-0.0007	172.22			
39.650	-0.0008	172.30			
39.667	-0.0009	172.25			
39.683	-0.0009	172.14			
39.700	-0.0010	171.99			
39.717	-0.0010	172.21			
39.733	-0.0010	172.57			
39.750	-0.0010	172.69			
39.767	-0.0010	173.41			
39.783	-0.0010	173.49			
39.800	-0.0010	174.05			
39.817	-0.0009	174.24			
39.833	-0.0010	174.36			
39.850	-0.0011	174.47			
39.867	-0.0011	174.32			
39.883	-0.0010	174.72			
39.900	-0.0010	174.57			
39.917	-0.0010	174.97			
39.933	-0.0011	174.75			
39.950	-0.0011	175.19			
39.967	-0.0011	175.00			
39.983	-0.0011	175.08			
40.000	-0.0011	175.17			
40.017	-0.0011	175.25			
40.033	-0.0012	175.35			
