Methods Information:
29.03.2024 16:46:20
<untitled>  
List:  Volume(ml)       Buffer    ml/min
 ->    0.00 Collect All:  1.00 ml 
01     0.00 to   10.00 BUFFER A     1.00
--------------------------------------------------
--------------------------------------------------
Time [min.]:	UV [A.U.]:	Conductivity [mS/cm]:	Events:		
0.000	0.0603	32.41	Start  28.33 min		
0.017	0.0602	32.41	Fraction  29.33 min		
0.033	0.0602	32.41	Fraction  30.33 min		
0.050	0.0602	32.41	Fraction  31.33 min		
0.067	0.0602	32.41	Fraction  32.33 min		
0.083	0.0602	32.37	Fraction  33.33 min		
0.100	0.0600	32.37	Pause  33.51 min		
0.117	0.0599	32.46	Fraction  33.51 min		
0.133	0.0599	32.49			
0.150	0.0599	32.53			
0.167	0.0601	32.61			
0.183	0.0604	32.66			
0.200	0.0605	32.71			
0.217	0.0603	32.76			
0.233	0.0603	32.80			
0.250	0.0603	32.82			
0.267	0.0602	32.85			
0.283	0.0603	32.88			
0.300	0.0603	32.90			
0.317	0.0604	32.94			
0.333	0.0604	32.95			
0.350	0.0604	32.93			
0.367	0.0604	32.95			
0.383	0.0604	32.97			
0.400	0.0604	33.00			
0.417	0.0604	33.04			
0.433	0.0604	33.04			
0.450	0.0604	33.04			
0.467	0.0604	33.07			
0.483	0.0604	33.09			
0.500	0.0604	33.10			
0.517	0.0603	33.07			
0.533	0.0603	33.09			
0.550	0.0603	33.09			
0.567	0.0604	33.10			
0.583	0.0603	33.10			
0.600	0.0603	33.10			
0.617	0.0603	33.12			
0.633	0.0603	33.14			
0.650	0.0603	33.14			
0.667	0.0602	33.15			
0.683	0.0603	33.15			
0.700	0.0603	33.09			
0.717	0.0603	33.11			
0.733	0.0602	33.11			
0.750	0.0602	33.09			
0.767	0.0601	33.11			
0.783	0.0601	33.13			
0.800	0.0601	33.15			
0.817	0.0602	33.13			
0.833	0.0602	33.15			
0.850	0.0601	33.15			
0.867	0.0602	33.15			
0.883	0.0602	33.15			
0.900	0.0602	33.15			
0.917	0.0603	33.15			
0.933	0.0603	33.09			
0.950	0.0603	33.09			
0.967	0.0604	33.11			
0.983	0.0604	33.11			
1.000	0.0603	33.11			
1.017	0.0603	33.13			
1.033	0.0603	33.13			
1.050	0.0602	33.13			
1.067	0.0602	33.11			
1.083	0.0603	33.13			
1.100	0.0603	33.11			
1.117	0.0604	33.13			
1.133	0.0606	33.13			
1.150	0.0610	33.13			
1.167	0.0619	33.13			
1.183	0.0639	33.13			
1.200	0.0666	33.14			
1.217	0.0712	33.14			
1.233	0.0789	33.13			
1.250	0.0875	33.14			
1.267	0.0994	33.16			
1.283	0.1152	33.16			
1.300	0.1302	33.16			
1.317	0.1514	33.16			
1.333	0.1708	33.08			
1.350	0.1812	32.97			
1.367	0.1820	32.92			
1.383	0.1810	32.89			
1.400	0.1805	32.86			
1.417	0.1802	32.84			
1.433	0.1802	32.82			
1.450	0.1804	32.82			
1.467	0.1808	32.81			
1.483	0.1874	32.84			
1.500	0.2064	32.96			
1.517	0.2274	33.03			
1.533	0.2306	33.06			
1.550	0.2574	33.08			
1.567	0.2882	33.08			
1.583	0.3112	33.08			
1.600	0.3274	33.09			
1.617	0.3425	33.09			
1.633	0.3575	33.09			
1.650	0.3803	33.09			
1.667	0.4061	33.09			
1.683	0.4267	33.09			
1.700	0.4431	33.11			
1.717	0.4625	33.11			
1.733	0.4781	33.11			
1.750	0.4942	33.13			
1.767	0.5116	33.13			
1.783	0.5260	33.13			
1.800	0.5410	33.13			
1.817	0.5571	33.14			
1.833	0.5695	33.14			
1.850	0.5831	33.16			
1.867	0.5973	33.16			
1.883	0.6085	33.16			
1.900	0.6218	33.18			
1.917	0.6366	33.18			
1.933	0.6473	33.14			
1.950	0.6591	33.05			
1.967	0.6718	33.05			
1.983	0.6820	33.06			
2.000	0.6927	33.05			
2.017	0.7041	33.05			
2.033	0.7143	33.06			
2.050	0.7265	33.06			
2.067	0.7404	33.06			
2.083	0.7506	33.06			
2.100	0.7610	33.06			
2.117	0.7711	33.01			
2.133	0.7795	33.01			
2.150	0.7878	33.03			
2.167	0.7975	33.03			
2.183	0.8045	33.01			
2.200	0.8126	33.01			
2.217	0.8200	33.01			
2.233	0.8268	33.01			
2.250	0.8352	33.00			
2.267	0.8440	33.00			
2.283	0.8498	33.01			
2.300	0.8573	33.01			
2.317	0.8651	33.01			
2.333	0.8712	33.00			
2.350	0.8784	33.00			
2.367	0.8858	33.00			
2.383	0.8916	33.00			
2.400	0.8956	33.00			
2.417	0.8975	33.00			
2.433	0.9058	33.00			
2.450	0.9138	33.00			
2.467	0.9208	32.98			
2.483	0.9275	32.98			
2.500	0.9394	32.93			
2.517	0.9443	32.94			
2.533	0.9432	32.94			
2.550	0.9447	32.93			
2.567	0.9592	32.93			
2.583	0.9693	32.93			
2.600	0.9731	32.94			
2.617	0.9752	32.94			
2.633	0.9779	32.93			
2.650	0.9807	32.94			
2.667	0.9846	32.94			
2.683	0.9873	32.96			
2.700	0.9906	32.96			
2.717	0.9942	32.96			
2.733	0.9969	32.96			
2.750	1.0010	32.96			
2.767	1.0049	32.98			
2.783	1.0080	32.98			
2.800	1.0108	32.98			
2.817	1.0142	32.99			
2.833	1.0161	32.99			
2.850	1.0177	33.01			
2.867	1.0192	33.01			
2.883	1.0221	33.01			
2.900	1.0251	32.95			
2.917	1.0266	32.95			
2.933	1.0289	32.93			
2.950	1.0319	32.95			
2.967	1.0345	32.95			
2.983	1.0362	32.95			
3.000	1.0382	32.97			
3.017	1.0410	32.95			
3.033	1.0433	32.93			
3.050	1.0441	32.95			
3.067	1.0465	32.97			
3.083	1.0485	32.95			
3.100	1.0506	32.95			
3.117	1.0522	32.95			
3.133	1.0530	32.95			
3.150	1.0547	32.97			
3.167	1.0562	32.97			
3.183	1.0573	32.97			
3.200	1.0587	32.97			
3.217	1.0599	32.95			
3.233	1.0616	32.95			
3.250	1.0632	32.95			
3.267	1.0646	32.95			
3.283	1.0657	32.90			
3.300	1.0670	32.90			
3.317	1.0683	32.90			
3.333	1.0695	32.90			
3.350	1.0708	32.90			
3.367	1.0717	32.90			
3.383	1.0730	32.88			
3.400	1.0741	32.88			
3.417	1.0752	32.90			
3.433	1.0762	32.86			
3.450	1.0774	32.88			
3.467	1.0788	32.90			
3.483	1.0799	32.88			
3.500	1.0808	32.88			
3.517	1.0817	32.88			
3.533	1.0809	32.90			
3.550	1.0803	32.88			
3.567	1.0828	32.86			
3.583	1.0851	32.88			
3.600	1.0855	32.88			
3.617	1.0862	32.90			
3.633	1.0879	32.88			
3.650	1.0895	32.88			
3.667	1.0903	32.88			
3.683	1.0907	32.90			
3.700	1.0914	32.90			
3.717	1.0925	32.88			
3.733	1.0924	32.88			
3.750	1.0925	32.90			
3.767	1.0940	32.90			
3.783	1.0950	32.93			
3.800	1.0953	32.91			
3.817	1.0957	32.93			
3.833	1.0963	32.93			
3.850	1.0971	32.93			
3.867	1.0974	32.95			
3.883	1.0975	32.95			
3.900	1.0978	32.96			
3.917	1.0980	32.98			
3.933	1.0989	32.98			
3.950	1.1002	33.00			
3.967	1.1013	33.00			
3.983	1.1017	32.96			
4.000	1.1021	32.96			
4.017	1.1029	32.96			
4.033	1.1032	32.98			
4.050	1.1033	32.98			
4.067	1.1032	32.98			
4.083	1.1035	33.00			
4.100	1.1037	32.98			
4.117	1.1040	33.00			
4.133	1.1047	33.00			
4.150	1.1061	33.01			
4.167	1.1067	32.88			
4.183	1.1069	32.88			
4.200	1.1072	32.88			
4.217	1.1077	32.88			
4.233	1.1078	32.88			
4.250	1.1085	32.90			
4.267	1.1088	32.85			
4.283	1.1091	32.83			
4.300	1.1098	32.83			
4.317	1.1102	32.83			
4.333	1.1102	32.85			
4.350	1.1102	32.83			
4.367	1.1108	32.83			
4.383	1.1111	32.85			
4.400	1.1117	32.85			
4.417	1.1111	32.85			
4.433	1.1111	32.83			
4.450	1.1125	32.83			
4.467	1.1132	32.83			
4.483	1.1132	32.85			
4.500	1.1130	32.85			
4.517	1.1133	32.85			
4.533	1.1139	32.85			
4.550	1.1158	32.83			
4.567	1.1168	32.83			
4.583	1.1160	32.85			
4.600	1.1149	32.83			
4.617	1.1148	32.83			
4.633	1.1154	32.83			
4.650	1.1160	32.83			
4.667	1.1160	32.83			
4.683	1.1157	32.83			
4.700	1.1163	32.85			
4.717	1.1173	32.83			
4.733	1.1178	32.83			
4.750	1.1173	32.83			
4.767	1.1177	32.83			
4.783	1.1183	32.85			
4.800	1.1185	32.83			
4.817	1.1187	32.78			
4.833	1.1192	32.76			
4.850	1.1192	32.78			
4.867	1.1191	32.78			
4.883	1.1187	32.78			
4.900	1.1190	32.78			
4.917	1.1200	32.78			
4.933	1.1202	32.78			
4.950	1.1203	32.78			
4.967	1.1208	32.76			
4.983	1.1206	32.78			
5.000	1.1208	32.78			
5.017	1.1213	32.78			
5.033	1.1223	32.78			
5.050	1.1226	32.78			
5.067	1.1220	32.78			
5.083	1.1225	32.78			
5.100	1.1229	32.76			
5.117	1.1221	32.78			
5.133	1.1224	32.76			
5.150	1.1229	32.78			
5.167	1.1235	32.78			
5.183	1.1234	32.78			
5.200	1.1233	32.76			
5.217	1.1236	32.78			
5.233	1.1240	32.78			
5.250	1.1242	32.76			
5.267	1.1239	32.76			
5.283	1.1245	32.76			
5.300	1.1251	32.78			
5.317	1.1249	32.78			
5.333	1.1246	32.78			
5.350	1.1251	32.78			
5.367	1.1262	32.76			
5.383	1.1260	32.78			
5.400	1.1253	32.78			
5.417	1.1251	32.78			
5.433	1.1255	32.78			
5.450	1.1255	32.78			
5.467	1.1259	32.78			
5.483	1.1257	32.78			
5.500	1.1259	32.79			
5.517	1.1262	32.78			
5.533	1.1269	32.78			
5.550	1.1269	32.72			
5.567	1.1259	32.79			
5.583	1.1255	32.72			
5.600	1.1265	32.74			
5.617	1.1277	32.72			
5.633	1.1282	32.72			
5.650	1.1285	32.72			
5.667	1.1281	32.74			
5.683	1.1284	32.74			
5.700	1.1285	32.74			
5.717	1.1288	32.74			
5.733	1.1282	32.72			
5.750	1.1275	32.72			
5.767	1.1273	32.72			
5.783	1.1280	32.74			
5.800	1.1281	32.72			
5.817	1.1289	32.72			
5.833	1.1291	32.72			
5.850	1.1289	32.74			
5.867	1.1288	32.74			
5.883	1.1290	32.72			
5.900	1.1293	32.72			
5.917	1.1298	32.72			
5.933	1.1294	32.72			
5.950	1.1294	32.72			
5.967	1.1300	32.74			
5.983	1.1300	32.72			
6.000	1.1295	32.72			
6.017	1.1296	32.72			
6.033	1.1303	32.72			
6.050	1.1298	32.74			
6.067	1.1295	32.72			
6.083	1.1301	32.72			
6.100	1.1303	32.74			
6.117	1.1299	32.74			
6.133	1.1302	32.74			
6.150	1.1303	32.76			
6.167	1.1302	32.77			
6.183	1.1303	32.79			
6.200	1.1300	32.79			
6.217	1.1299	32.79			
6.233	1.1304	32.81			
6.250	1.1309	32.81			
6.267	1.1307	32.82			
6.283	1.1302	32.82			
6.300	1.1298	32.82			
6.317	1.1300	32.82			
6.333	1.1304	32.82			
6.350	1.1306	32.84			
6.367	1.1310	32.84			
6.383	1.1310	32.84			
6.400	1.1314	32.86			
6.417	1.1314	32.86			
6.433	1.1313	32.86			
6.450	1.1312	32.87			
6.467	1.1316	32.86			
6.483	1.1318	32.86			
6.500	1.1316	32.87			
6.517	1.1320	32.87			
6.533	1.1319	32.89			
6.550	1.1312	32.87			
6.567	1.1317	32.79			
6.583	1.1323	32.81			
6.600	1.1320	32.79			
6.617	1.1314	32.81			
6.633	1.1314	32.81			
6.650	1.1322	32.81			
6.667	1.1330	32.83			
6.683	1.1328	32.83			
6.700	1.1327	32.83			
6.717	1.1334	32.83			
6.733	1.1334	32.83			
6.750	1.1330	32.83			
6.767	1.1325	32.84			
6.783	1.1323	32.84			
6.800	1.1330	32.84			
6.817	1.1342	32.84			
6.833	1.1341	32.84			
6.850	1.1336	32.84			
6.867	1.1333	32.86			
6.883	1.1326	32.84			
6.900	1.1321	32.84			
6.917	1.1328	32.84			
6.933	1.1327	32.84			
6.950	1.1328	32.84			
6.967	1.1333	32.84			
6.983	1.1333	32.84			
7.000	1.1329	32.83			
7.017	1.1334	32.84			
7.033	1.1341	32.84			
7.050	1.1347	32.83			
7.067	1.1344	32.83			
7.083	1.1328	32.84			
7.100	1.1322	32.84			
7.117	1.1330	32.83			
7.133	1.1337	32.77			
7.150	1.1338	32.77			
7.167	1.1340	32.77			
7.183	1.1341	32.77			
7.200	1.1336	32.77			
7.217	1.1336	32.77			
7.233	1.1345	32.77			
7.250	1.1348	32.77			
7.267	1.1340	32.77			
7.283	1.1337	32.77			
7.300	1.1339	32.77			
7.317	1.1344	32.77			
7.333	1.1343	32.76			
7.350	1.1348	32.77			
7.367	1.1350	32.79			
7.383	1.1350	32.79			
7.400	1.1349	32.77			
7.417	1.1345	32.79			
7.433	1.1342	32.79			
7.450	1.1342	32.77			
7.467	1.1344	32.77			
7.483	1.1342	32.79			
7.500	1.1347	32.79			
7.517	1.1342	32.81			
7.533	1.1342	32.81			
7.550	1.1342	32.79			
7.567	1.1347	32.82			
7.583	1.1349	32.82			
7.600	1.1350	32.82			
7.617	1.1348	32.84			
7.633	1.1349	32.84			
7.650	1.1354	32.84			
7.667	1.1359	32.86			
7.683	1.1353	32.87			
7.700	1.1349	32.87			
7.717	1.1351	32.89			
7.733	1.1352	32.89			
7.750	1.1354	32.89			
7.767	1.1358	32.91			
7.783	1.1357	32.89			
7.800	1.1351	32.91			
7.817	1.1353	32.91			
7.833	1.1353	32.91			
7.850	1.1346	32.91			
7.867	1.1348	32.91			
7.883	1.1349	32.92			
7.900	1.1354	32.94			
7.917	1.1354	32.89			
7.933	1.1353	32.90			
7.950	1.1351	32.90			
7.967	1.1352	32.89			
7.983	1.1355	32.90			
8.000	1.1352	32.90			
8.017	1.1350	32.90			
8.033	1.1352	32.90			
8.050	1.1360	32.92			
8.067	1.1362	32.94			
8.083	1.1362	32.94			
8.100	1.1357	32.94			
8.117	1.1362	32.95			
8.133	1.1357	32.95			
8.150	1.1356	32.95			
8.167	1.1349	32.95			
8.183	1.1350	32.97			
8.200	1.1351	32.97			
8.217	1.1355	32.95			
8.233	1.1351	32.97			
8.250	1.1348	32.98			
8.267	1.1349	32.98			
8.283	1.1351	32.98			
8.300	1.1353	32.98			
8.317	1.1354	32.98			
8.333	1.1354	32.90			
8.350	1.1353	32.92			
8.367	1.1348	32.92			
8.383	1.1349	32.92			
8.400	1.1351	32.92			
8.417	1.1358	32.94			
8.433	1.1358	32.94			
8.450	1.1367	32.92			
8.467	1.1374	32.92			
8.483	1.1372	32.94			
8.500	1.1362	32.94			
8.517	1.1349	32.92			
8.533	1.1353	32.92			
8.550	1.1360	32.94			
8.567	1.1362	32.92			
8.583	1.1361	32.94			
8.600	1.1358	32.92			
8.617	1.1366	32.90			
8.633	1.1371	32.92			
8.650	1.1363	32.92			
8.667	1.1357	32.92			
8.683	1.1356	32.90			
8.700	1.1350	32.90			
8.717	1.1356	32.89			
8.733	1.1364	32.90			
8.750	1.1365	32.90			
8.767	1.1360	32.90			
8.783	1.1364	32.90			
8.800	1.1361	32.85			
8.817	1.1363	32.87			
8.833	1.1366	32.87			
8.850	1.1363	32.85			
8.867	1.1360	32.85			
8.883	1.1359	32.85			
8.900	1.1360	32.85			
8.917	1.1358	32.87			
8.933	1.1351	32.85			
8.950	1.1353	32.85			
8.967	1.1363	32.85			
8.983	1.1369	32.85			
9.000	1.1367	32.87			
9.017	1.1362	32.87			
9.033	1.1363	32.87			
9.050	1.1363	32.85			
9.067	1.1369	32.85			
9.083	1.1367	32.85			
9.100	1.1362	32.85			
9.117	1.1363	32.85			
9.133	1.1365	32.85			
9.150	1.1365	32.85			
9.167	1.1359	32.85			
9.183	1.1358	32.85			
9.200	1.1366	32.87			
9.217	1.1372	32.87			
9.233	1.1373	32.87			
9.250	1.1369	32.85			
9.267	1.1365	32.85			
9.283	1.1363	32.85			
9.300	1.1367	32.85			
9.317	1.1371	32.85			
9.333	1.1362	32.85			
9.350	1.1355	32.83			
9.367	1.1361	32.83			
9.383	1.1365	32.85			
9.400	1.1362	32.83			
9.417	1.1361	32.85			
9.433	1.1364	32.85			
9.450	1.1368	32.85			
9.467	1.1370	32.83			
9.483	1.1364	32.85			
9.500	1.1355	32.85			
9.517	1.1358	32.83			
9.533	1.1364	32.85			
9.550	1.1364	32.87			
9.567	1.1365	32.85			
9.583	1.1374	32.83			
9.600	1.1376	32.83			
9.617	1.1376	32.85			
9.633	1.1381	32.83			
9.650	1.1373	32.83			
9.667	1.1369	32.85			
9.683	1.1365	32.83			
9.700	1.1365	32.83			
9.717	1.1371	32.83			
9.733	1.1379	32.83			
9.750	1.1380	32.83			
9.767	1.1374	32.83			
9.783	1.1372	32.85			
9.800	1.1373	32.83			
9.817	1.1373	32.83			
9.833	1.1375	32.85			
9.850	1.1372	32.83			
9.867	1.1372	32.85			
9.883	1.1372	32.85			
9.900	1.1368	32.85			
9.917	1.1374	32.87			
9.933	1.1383	32.87			
9.950	1.1377	32.87			
9.967	1.1376	32.87			
9.983	1.1374	32.88			
10.000	1.1373	32.88			
10.017	1.1372	32.90			
10.033	1.1372	32.90			
10.050	1.1371	32.92			
10.067	1.1368	32.92			
10.083	1.1369	32.92			
10.100	1.1380	32.92			
10.117	1.1379	32.93			
10.133	1.1376	32.88			
10.150	1.1374	32.88			
10.167	1.1376	32.90			
10.183	1.1374	32.90			
10.200	1.1370	32.91			
10.217	1.1373	32.91			
10.233	1.1373	32.93			
10.250	1.1369	32.93			
10.267	1.1368	32.93			
10.283	1.1376	32.95			
10.300	1.1384	32.95			
10.317	1.1390	32.93			
10.333	1.1386	32.93			
10.350	1.1383	32.95			
10.367	1.1385	32.95			
10.383	1.1382	32.96			
10.400	1.1382	32.96			
10.417	1.1379	32.98			
10.433	1.1374	33.00			
10.450	1.1368	32.96			
10.467	1.1374	32.98			
10.483	1.1373	32.98			
10.500	1.1370	32.98			
10.517	1.1369	33.01			
10.533	1.1371	33.01			
10.550	1.1376	33.00			
10.567	1.1375	33.01			
10.583	1.1373	33.03			
10.600	1.1372	33.01			
10.617	1.1379	33.01			
10.633	1.1377	33.03			
10.650	1.1365	33.03			
10.667	1.1365	33.03			
10.683	1.1367	33.04			
10.700	1.1366	32.99			
10.717	1.1372	32.99			
10.733	1.1375	33.01			
10.750	1.1377	33.02			
10.767	1.1373	33.01			
10.783	1.1377	33.01			
10.800	1.1372	33.02			
10.817	1.1371	33.04			
10.833	1.1379	33.04			
10.850	1.1387	33.04			
10.867	1.1379	33.04			
10.883	1.1369	33.06			
10.900	1.1368	33.06			
10.917	1.1371	33.06			
10.933	1.1338	33.02			
10.950	1.1292	32.91			
10.967	1.1254	32.84			
10.983	1.1248	32.81			
11.000	1.1244	32.79			
11.017	1.1253	32.76			
11.033	1.1252	32.76			
11.050	1.1247	32.75			
11.067	1.1244	32.73			
11.083	1.1251	32.73			
11.100	1.1255	32.71			
11.117	1.1256	32.70			
11.133	1.1253	32.70			
11.150	1.1255	32.70			
11.167	1.1252	32.70			
11.183	1.1252	32.70			
11.200	1.1245	32.70			
11.217	1.1243	32.68			
11.233	1.1244	32.68			
11.250	1.1248	32.66			
11.267	1.1246	32.66			
11.283	1.1250	32.65			
11.300	1.1242	32.65			
11.317	1.1243	32.63			
11.333	1.1248	32.65			
11.350	1.1252	32.63			
11.367	1.1289	32.58			
11.383	1.1356	32.50			
11.400	1.1399	32.52			
11.417	1.1328	32.55			
11.433	1.1234	32.57			
11.450	1.1243	32.57			
11.467	1.1260	32.58			
11.483	1.1256	32.58			
11.500	1.1246	32.58			
11.517	1.1245	32.58			
11.533	1.1251	32.58			
11.550	1.1253	32.57			
11.567	1.1255	32.62			
11.583	1.1262	32.58			
11.600	1.1262	32.58			
11.617	1.1259	32.64			
11.633	1.1258	32.62			
11.650	1.1315	32.55			
11.667	1.1374	32.65			
11.683	1.1396	32.70			
11.700	1.1393	32.78			
11.717	1.1390	32.83			
11.733	1.1380	32.81			
11.750	1.1372	32.84			
11.767	1.1372	32.84			
11.783	1.1373	32.88			
11.800	1.1372	32.91			
11.817	1.1367	32.93			
11.833	1.1370	32.94			
11.850	1.1375	32.96			
11.867	1.1377	32.97			
11.883	1.1376	32.99			
11.900	1.1381	33.01			
11.917	1.1385	33.02			
11.933	1.1384	33.04			
11.950	1.1382	33.06			
11.967	1.1381	33.06			
11.983	1.1377	33.07			
12.000	1.1375	33.07			
12.017	1.1380	33.09			
12.033	1.1385	33.02			
12.050	1.1376	33.04			
12.067	1.1372	33.06			
12.083	1.1367	33.06			
12.100	1.1376	33.09			
12.117	1.1381	33.11			
12.133	1.1384	33.11			
12.150	1.1379	33.11			
12.167	1.1371	33.12			
12.183	1.1371	33.12			
12.200	1.1369	33.12			
12.217	1.1373	33.14			
12.233	1.1377	33.14			
12.250	1.1377	33.14			
12.267	1.1378	33.14			
12.283	1.1378	33.10			
12.300	1.1376	33.12			
12.317	1.1370	33.12			
12.333	1.1374	33.12			
12.350	1.1372	33.10			
12.367	1.1364	33.12			
12.383	1.1366	33.12			
12.400	1.1370	33.12			
12.417	1.1377	33.13			
12.433	1.1380	33.13			
12.450	1.1376	33.15			
12.467	1.1375	33.15			
12.483	1.1381	33.13			
12.500	1.1380	33.13			
12.517	1.1373	33.15			
12.533	1.1367	33.15			
12.550	1.1365	33.15			
12.567	1.1368	33.15			
12.583	1.1376	33.15			
12.600	1.1378	33.15			
12.617	1.1375	33.15			
12.633	1.1372	33.09			
12.650	1.1376	33.09			
12.667	1.1380	33.08			
12.683	1.1378	33.09			
12.700	1.1370	33.09			
12.717	1.1360	33.09			
12.733	1.1348	33.09			
12.750	1.1321	33.09			
12.767	1.1288	33.09			
12.783	1.1240	33.08			
12.800	1.1183	33.09			
12.817	1.1123	33.09			
12.833	1.1054	33.08			
12.850	1.0971	33.09			
12.867	1.0874	33.08			
12.883	1.0746	33.08			
12.900	1.0604	33.09			
12.917	1.0452	33.09			
12.933	1.0279	33.09			
12.950	1.0092	33.11			
12.967	0.9894	33.11			
12.983	0.9686	33.11			
13.000	0.9478	33.09			
13.017	0.9269	33.11			
13.033	0.9066	33.11			
13.050	0.8860	33.13			
13.067	0.8661	33.13			
13.083	0.8469	33.13			
13.100	0.8277	33.13			
13.117	0.8088	33.13			
13.133	0.7906	33.14			
13.150	0.7730	33.14			
13.167	0.7564	33.14			
13.183	0.7398	33.14			
13.200	0.7233	33.16			
13.217	0.7074	33.16			
13.233	0.6922	33.16			
13.250	0.6777	33.10			
13.267	0.6629	33.18			
13.283	0.6483	33.10			
13.300	0.6341	33.11			
13.317	0.6212	33.11			
13.333	0.6072	33.11			
13.350	0.5930	33.14			
13.367	0.5800	33.16			
13.383	0.5670	33.16			
13.400	0.5547	33.16			
13.417	0.5422	33.16			
13.433	0.5296	33.19			
13.450	0.5173	33.21			
13.467	0.5053	33.22			
13.483	0.4937	33.22			
13.500	0.4821	33.24			
13.517	0.4705	33.27			
13.533	0.4590	33.29			
13.550	0.4480	33.32			
13.567	0.4379	33.32			
13.583	0.4262	33.35			
13.600	0.4153	33.37			
13.617	0.4050	33.40			
13.633	0.3961	33.42			
13.650	0.3879	33.44			
13.667	0.3792	33.44			
13.683	0.3696	33.45			
13.700	0.3610	33.47			
13.717	0.3531	33.47			
13.733	0.3455	33.47			
13.750	0.3380	33.47			
13.767	0.3300	33.45			
13.783	0.3228	33.44			
13.800	0.3159	33.44			
13.817	0.3096	33.42			
13.833	0.3031	33.40			
13.850	0.2967	33.37			
13.867	0.2903	33.35			
13.883	0.2844	33.31			
13.900	0.2789	33.27			
13.917	0.2732	33.22			
13.933	0.2677	33.18			
13.950	0.2623	33.13			
13.967	0.2570	33.08			
13.983	0.2520	33.03			
14.000	0.2469	32.90			
14.017	0.2418	32.83			
14.033	0.2368	32.77			
14.050	0.2325	32.70			
14.067	0.2280	32.62			
14.083	0.2235	32.54			
14.100	0.2194	32.44			
14.117	0.2151	32.36			
14.133	0.2113	32.28			
14.150	0.2078	32.20			
14.167	0.2042	32.12			
14.183	0.2001	32.04			
14.200	0.1963	31.94			
14.217	0.1930	31.84			
14.233	0.1902	31.76			
14.250	0.1870	31.67			
14.267	0.1833	31.55			
14.283	0.1797	31.49			
14.300	0.1768	31.37			
14.317	0.1745	31.28			
14.333	0.1716	31.21			
14.350	0.1685	31.10			
14.367	0.1654	31.00			
14.383	0.1629	30.92			
14.400	0.1608	30.82			
14.417	0.1585	30.71			
14.433	0.1555	30.65			
14.450	0.1527	30.55			
14.467	0.1505	30.45			
14.483	0.1485	30.37			
14.500	0.1462	30.27			
14.517	0.1435	30.18			
14.533	0.1411	30.10			
14.550	0.1393	29.97			
14.567	0.1375	29.89			
14.583	0.1354	29.80			
14.600	0.1330	29.71			
14.617	0.1307	29.61			
14.633	0.1291	29.55			
14.650	0.1274	29.46			
14.667	0.1255	29.40			
14.683	0.1233	29.34			
14.700	0.1214	29.25			
14.717	0.1198	29.17			
14.733	0.1182	29.13			
14.750	0.1163	29.04			
14.767	0.1143	28.98			
14.783	0.1124	28.90			
14.800	0.1111	28.82			
14.817	0.1095	28.77			
14.833	0.1079	28.72			
14.850	0.1061	28.64			
14.867	0.1044	28.58			
14.883	0.1031	28.51			
14.900	0.1018	28.46			
14.917	0.1002	28.41			
14.933	0.0986	28.36			
14.950	0.0972	28.32			
14.967	0.0959	28.20			
14.983	0.0946	28.14			
15.000	0.0933	28.09			
15.017	0.0917	28.06			
15.033	0.0903	28.04			
15.050	0.0893	27.98			
15.067	0.0882	27.93			
15.083	0.0867	27.91			
15.100	0.0854	27.87			
15.117	0.0841	27.82			
15.133	0.0830	27.77			
15.150	0.0819	27.75			
15.167	0.0807	27.72			
15.183	0.0795	27.69			
15.200	0.0784	27.64			
15.217	0.0776	27.61			
15.233	0.0767	27.57			
15.250	0.0755	27.54			
15.267	0.0745	27.53			
15.283	0.0737	27.48			
15.300	0.0731	27.46			
15.317	0.0717	27.43			
15.333	0.0709	27.41			
15.350	0.0701	27.40			
15.367	0.0691	27.38			
15.383	0.0682	27.38			
15.400	0.0672	27.30			
15.417	0.0663	27.27			
15.433	0.0655	27.25			
15.450	0.0648	27.24			
15.467	0.0636	27.24			
15.483	0.0626	27.22			
15.500	0.0616	27.19			
15.517	0.0607	27.19			
15.533	0.0598	27.19			
15.550	0.0591	27.19			
15.567	0.0587	27.19			
15.583	0.0580	27.17			
15.600	0.0574	27.17			
15.617	0.0568	27.17			
15.633	0.0563	27.14			
15.650	0.0557	27.15			
15.667	0.0550	27.14			
15.683	0.0544	27.15			
15.700	0.0538	27.14			
15.717	0.0534	27.12			
15.733	0.0530	27.14			
15.750	0.0525	27.12			
15.767	0.0518	27.12			
15.783	0.0511	27.12			
15.800	0.0506	27.12			
15.817	0.0502	27.11			
15.833	0.0496	27.11			
15.850	0.0490	27.11			
15.867	0.0484	27.11			
15.883	0.0480	27.11			
15.900	0.0475	27.11			
15.917	0.0469	27.12			
15.933	0.0462	27.11			
15.950	0.0458	27.09			
15.967	0.0455	27.09			
15.983	0.0452	27.09			
16.000	0.0446	27.07			
16.017	0.0442	27.09			
16.033	0.0438	27.07			
16.050	0.0435	27.09			
16.067	0.0431	27.09			
16.083	0.0426	27.09			
16.100	0.0422	27.07			
16.117	0.0418	27.09			
16.133	0.0416	27.09			
16.150	0.0411	27.09			
16.167	0.0407	27.07			
16.183	0.0402	27.09			
16.200	0.0399	27.07			
16.217	0.0396	27.07			
16.233	0.0393	27.07			
16.250	0.0389	27.06			
16.267	0.0386	27.06			
16.283	0.0383	27.07			
16.300	0.0379	27.06			
16.317	0.0374	27.07			
16.333	0.0371	27.07			
16.350	0.0369	27.07			
16.367	0.0367	27.07			
16.383	0.0366	27.06			
16.400	0.0363	27.07			
16.417	0.0359	27.07			
16.433	0.0355	27.07			
16.450	0.0352	27.07			
16.467	0.0350	27.09			
16.483	0.0348	27.07			
16.500	0.0345	27.09			
16.517	0.0342	27.07			
16.533	0.0340	27.07			
16.550	0.0338	27.07			
16.567	0.0335	27.07			
16.583	0.0332	27.05			
16.600	0.0331	27.07			
16.617	0.0328	27.07			
16.633	0.0326	27.03			
16.650	0.0324	27.03			
16.667	0.0322	27.03			
16.683	0.0320	27.03			
16.700	0.0318	27.09			
16.717	0.0317	27.03			
16.733	0.0314	27.07			
16.750	0.0312	27.07			
16.767	0.0310	27.03			
16.783	0.0308	27.03			
16.800	0.0306	27.05			
16.817	0.0304	27.03			
16.833	0.0302	27.03			
16.850	0.0300	27.05			
16.867	0.0299	27.05			
16.883	0.0298	27.05			
16.900	0.0295	27.03			
16.917	0.0293	27.05			
16.933	0.0291	27.05			
16.950	0.0290	27.03			
16.967	0.0289	27.03			
16.983	0.0287	27.03			
17.000	0.0284	27.05			
17.017	0.0283	27.05			
17.033	0.0282	27.05			
17.050	0.0281	27.05			
17.067	0.0280	27.03			
17.083	0.0278	27.05			
17.100	0.0276	27.05			
17.117	0.0276	27.05			
17.133	0.0275	27.05			
17.150	0.0272	27.05			
17.167	0.0270	27.03			
17.183	0.0269	27.03			
17.200	0.0269	27.05			
17.217	0.0267	27.05			
17.233	0.0265	27.05			
17.250	0.0264	27.05			
17.267	0.0264	27.05			
17.283	0.0262	27.03			
17.300	0.0259	27.03			
17.317	0.0257	27.05			
17.333	0.0258	27.03			
17.350	0.0257	27.05			
17.367	0.0256	27.05			
17.383	0.0254	27.06			
17.400	0.0252	27.05			
17.417	0.0251	27.06			
17.433	0.0250	27.06			
17.450	0.0249	27.06			
17.467	0.0249	27.06			
17.483	0.0248	27.05			
17.500	0.0246	27.05			
17.517	0.0245	27.03			
17.533	0.0244	27.05			
17.550	0.0242	27.05			
17.567	0.0242	27.06			
17.583	0.0240	27.06			
17.600	0.0239	27.05			
17.617	0.0238	27.06			
17.633	0.0239	27.06			
17.650	0.0238	27.06			
17.667	0.0237	27.06			
17.683	0.0236	27.06			
17.700	0.0235	27.06			
17.717	0.0233	27.06			
17.733	0.0231	27.05			
17.750	0.0230	27.03			
17.767	0.0230	27.05			
17.783	0.0229	27.05			
17.800	0.0228	27.05			
17.817	0.0227	27.05			
17.833	0.0227	27.05			
17.850	0.0228	27.05			
17.867	0.0226	27.06			
17.883	0.0225	27.06			
17.900	0.0224	27.05			
17.917	0.0225	27.05			
17.933	0.0225	27.06			
17.950	0.0224	27.06			
17.967	0.0223	27.06			
17.983	0.0222	27.06			
18.000	0.0222	27.08			
18.017	0.0220	27.08			
18.033	0.0219	27.08			
18.050	0.0219	27.08			
18.067	0.0218	27.08			
18.083	0.0217	27.09			
18.100	0.0217	27.08			
18.117	0.0217	27.08			
18.133	0.0215	27.08			
18.150	0.0213	27.08			
18.167	0.0213	27.08			
18.183	0.0213	27.09			
18.200	0.0213	27.08			
18.217	0.0213	27.08			
18.233	0.0212	27.09			
18.250	0.0212	27.09			
18.267	0.0211	27.08			
18.283	0.0210	27.09			
18.300	0.0210	27.09			
18.317	0.0208	27.09			
18.333	0.0208	27.09			
18.350	0.0207	27.08			
18.367	0.0207	27.08			
18.383	0.0206	27.09			
18.400	0.0205	27.09			
18.417	0.0205	27.08			
18.433	0.0206	27.08			
18.450	0.0205	27.08			
18.467	0.0203	27.08			
18.483	0.0202	27.08			
18.500	0.0202	27.08			
18.517	0.0203	27.06			
18.533	0.0203	27.06			
18.550	0.0201	27.09			
18.567	0.0200	27.08			
18.583	0.0200	27.08			
18.600	0.0200	27.08			
18.617	0.0200	27.08			
18.633	0.0200	27.09			
18.650	0.0200	27.08			
18.667	0.0199	27.08			
18.683	0.0198	27.09			
18.700	0.0196	27.08			
18.717	0.0196	27.08			
18.733	0.0196	27.08			
18.750	0.0196	27.08			
18.767	0.0196	27.08			
18.783	0.0197	27.08			
18.800	0.0196	27.08			
18.817	0.0195	27.09			
18.833	0.0194	27.09			
18.850	0.0192	27.09			
18.867	0.0192	27.08			
18.883	0.0192	27.09			
18.900	0.0192	27.08			
18.917	0.0190	27.08			
18.933	0.0191	27.08			
18.950	0.0191	27.08			
18.967	0.0191	27.08			
18.983	0.0191	27.08			
19.000	0.0190	27.09			
19.017	0.0189	27.09			
19.033	0.0188	27.08			
19.050	0.0188	27.08			
19.067	0.0189	27.08			
19.083	0.0188	27.09			
19.100	0.0188	27.08			
19.117	0.0187	27.08			
19.133	0.0187	27.09			
19.150	0.0187	27.09			
19.167	0.0187	27.08			
19.183	0.0187	27.08			
19.200	0.0187	27.09			
19.217	0.0186	27.08			
19.233	0.0185	27.08			
19.250	0.0185	27.08			
19.267	0.0185	27.09			
19.283	0.0185	27.09			
19.300	0.0184	27.08			
19.317	0.0183	27.08			
19.333	0.0183	27.09			
19.350	0.0184	27.08			
19.367	0.0183	27.08			
19.383	0.0182	27.08			
19.400	0.0183	27.09			
19.417	0.0183	27.09			
19.433	0.0182	27.11			
19.450	0.0180	27.11			
19.467	0.0180	27.13			
19.483	0.0181	27.13			
19.500	0.0181	27.11			
19.517	0.0181	27.11			
19.533	0.0181	27.13			
19.550	0.0181	27.13			
19.567	0.0180	27.13			
19.583	0.0179	27.13			
19.600	0.0179	27.14			
19.617	0.0179	27.14			
19.633	0.0178	27.16			
19.650	0.0178	27.17			
19.667	0.0178	27.17			
19.683	0.0177	27.17			
19.700	0.0177	27.17			
19.717	0.0177	27.17			
19.733	0.0177	27.19			
19.750	0.0176	27.19			
19.767	0.0176	27.19			
19.783	0.0176	27.11			
19.800	0.0176	27.09			
19.817	0.0175	27.11			
19.833	0.0175	27.12			
19.850	0.0175	27.12			
19.867	0.0175	27.11			
19.883	0.0175	27.09			
19.900	0.0175	27.09			
19.917	0.0174	27.09			
19.933	0.0174	27.11			
19.950	0.0174	27.09			
19.967	0.0173	27.11			
19.983	0.0173	27.09			
20.000	0.0173	27.09			
20.017	0.0173	27.11			
20.033	0.0173	27.09			
20.050	0.0173	27.09			
20.067	0.0172	27.09			
20.083	0.0173	27.09			
20.100	0.0174	27.09			
20.117	0.0173	27.09			
20.133	0.0172	27.09			
20.150	0.0172	27.08			
20.167	0.0172	27.08			
20.183	0.0171	27.09			
20.200	0.0171	27.09			
20.217	0.0171	27.08			
20.233	0.0171	27.08			
20.250	0.0171	27.08			
20.267	0.0170	27.08			
20.283	0.0169	27.08			
20.300	0.0168	27.08			
20.317	0.0168	27.09			
20.333	0.0168	27.09			
20.350	0.0169	27.09			
20.367	0.0169	27.08			
20.383	0.0168	27.08			
20.400	0.0168	27.09			
20.417	0.0167	27.08			
20.433	0.0167	27.08			
20.450	0.0167	27.09			
20.467	0.0168	27.08			
20.483	0.0167	27.08			
20.500	0.0166	27.08			
20.517	0.0166	27.09			
20.533	0.0166	27.08			
20.550	0.0167	27.08			
20.567	0.0167	27.09			
20.583	0.0167	27.09			
20.600	0.0167	27.08			
20.617	0.0166	27.08			
20.633	0.0165	27.08			
20.650	0.0165	27.08			
20.667	0.0165	27.08			
20.683	0.0165	27.08			
20.700	0.0165	27.08			
20.717	0.0165	27.08			
20.733	0.0164	27.08			
20.750	0.0164	27.08			
20.767	0.0164	27.08			
20.783	0.0164	27.08			
20.800	0.0165	27.08			
20.817	0.0164	27.08			
20.833	0.0165	27.08			
20.850	0.0165	27.06			
20.867	0.0164	27.08			
20.883	0.0164	27.08			
20.900	0.0164	27.08			
20.917	0.0163	27.08			
20.933	0.0164	27.06			
20.950	0.0163	27.06			
20.967	0.0163	27.06			
20.983	0.0164	27.06			
21.000	0.0164	27.06			
21.017	0.0164	27.08			
21.033	0.0164	27.08			
21.050	0.0164	27.08			
21.067	0.0162	27.08			
21.083	0.0162	27.08			
21.100	0.0162	27.08			
21.117	0.0162	27.08			
21.133	0.0163	27.08			
21.150	0.0162	27.08			
21.167	0.0162	27.08			
21.183	0.0162	27.08			
21.200	0.0162	27.08			
21.217	0.0163	27.06			
21.233	0.0163	27.06			
21.250	0.0162	27.06			
21.267	0.0161	27.06			
21.283	0.0161	27.06			
21.300	0.0160	27.06			
21.317	0.0160	27.08			
21.333	0.0161	27.08			
21.350	0.0161	27.08			
21.367	0.0160	27.08			
21.383	0.0160	27.08			
21.400	0.0160	27.08			
21.417	0.0159	27.08			
21.433	0.0159	27.09			
21.450	0.0159	27.08			
21.467	0.0160	27.09			
21.483	0.0159	27.08			
21.500	0.0159	27.08			
21.517	0.0159	27.08			
21.533	0.0159	27.09			
21.550	0.0159	27.09			
21.567	0.0159	27.09			
21.583	0.0159	27.09			
21.600	0.0159	27.08			
21.617	0.0158	27.08			
21.633	0.0158	27.09			
21.650	0.0157	27.09			
21.667	0.0157	27.09			
21.683	0.0158	27.09			
21.700	0.0159	27.05			
21.717	0.0160	27.05			
21.733	0.0159	27.09			
21.750	0.0158	27.05			
21.767	0.0157	27.11			
21.783	0.0157	27.11			
21.800	0.0158	27.06			
21.817	0.0158	27.09			
21.833	0.0157	27.09			
21.850	0.0157	27.06			
21.867	0.0157	27.09			
21.883	0.0158	27.05			
21.900	0.0158	27.05			
21.917	0.0158	27.05			
21.933	0.0158	27.05			
21.950	0.0157	27.05			
21.967	0.0157	27.05			
21.983	0.0157	27.05			
22.000	0.0157	27.06			
22.017	0.0157	27.06			
22.033	0.0157	27.06			
22.050	0.0157	27.06			
22.067	0.0157	27.05			
22.083	0.0156	27.05			
22.100	0.0156	27.05			
22.117	0.0157	27.05			
22.133	0.0157	27.06			
22.150	0.0156	27.06			
22.167	0.0156	27.05			
22.183	0.0156	27.05			
22.200	0.0156	27.05			
22.217	0.0156	27.05			
22.233	0.0157	27.05			
22.250	0.0157	27.06			
22.267	0.0156	27.05			
22.283	0.0156	27.05			
22.300	0.0156	27.05			
22.317	0.0156	27.05			
22.333	0.0156	27.03			
22.350	0.0156	27.05			
22.367	0.0156	27.05			
22.383	0.0156	27.05			
22.400	0.0156	27.05			
22.417	0.0156	27.05			
22.433	0.0155	27.05			
22.450	0.0156	27.05			
22.467	0.0156	27.05			
22.483	0.0156	27.05			
22.500	0.0156	27.05			
22.517	0.0155	27.05			
22.533	0.0155	27.05			
22.550	0.0155	27.03			
22.567	0.0155	27.05			
22.583	0.0155	27.05			
22.600	0.0155	27.05			
22.617	0.0154	27.05			
22.633	0.0154	27.05			
22.650	0.0155	27.05			
22.667	0.0156	27.05			
22.683	0.0155	27.05			
22.700	0.0155	27.05			
22.717	0.0155	27.05			
22.733	0.0155	27.05			
22.750	0.0155	27.05			
22.767	0.0154	27.05			
22.783	0.0154	27.05			
22.800	0.0154	27.05			
22.817	0.0154	27.05			
22.833	0.0154	27.05			
22.850	0.0154	27.05			
22.867	0.0154	27.05			
22.883	0.0154	27.03			
22.900	0.0154	27.03			
22.917	0.0154	27.03			
22.933	0.0154	27.05			
22.950	0.0153	27.03			
22.967	0.0154	27.05			
22.983	0.0154	27.03			
23.000	0.0154	27.03			
23.017	0.0154	27.05			
23.033	0.0155	27.05			
23.050	0.0153	27.05			
23.067	0.0153	27.03			
23.083	0.0153	27.03			
23.100	0.0153	27.03			
23.117	0.0154	27.03			
23.133	0.0153	27.03			
23.150	0.0153	27.03			
23.167	0.0153	27.03			
23.183	0.0153	27.03			
23.200	0.0153	27.03			
23.217	0.0153	27.03			
23.233	0.0153	27.03			
23.250	0.0152	27.05			
23.267	0.0152	27.03			
23.283	0.0152	27.03			
23.300	0.0152	27.03			
23.317	0.0152	27.01			
23.333	0.0152	27.03			
23.350	0.0152	27.03			
23.367	0.0154	27.03			
23.383	0.0154	27.01			
23.400	0.0153	27.01			
23.417	0.0152	27.03			
23.433	0.0152	27.03			
23.450	0.0151	27.05			
23.467	0.0152	27.03			
23.483	0.0154	26.98			
23.500	0.0154	26.97			
23.517	0.0154	26.97			
23.533	0.0154	26.97			
23.550	0.0155	26.95			
23.567	0.0155	26.93			
23.583	0.0154	26.96			
23.600	0.0154	26.96			
23.617	0.0154	26.96			
23.633	0.0154	26.96			
23.650	0.0154	26.95			
23.667	0.0154	26.96			
23.683	0.0154	26.96			
23.700	0.0154	26.95			
23.717	0.0155	26.95			
23.733	0.0155	26.95			
23.750	0.0155	26.95			
23.767	0.0155	26.95			
23.783	0.0155	26.95			
23.800	0.0155	26.95			
23.817	0.0155	26.95			
23.833	0.0155	26.93			
23.850	0.0155	26.93			
23.867	0.0155	26.93			
23.883	0.0156	26.91			
23.900	0.0156	26.91			
23.917	0.0156	26.91			
23.933	0.0155	26.90			
23.950	0.0154	26.88			
23.967	0.0152	26.90			
23.983	0.0152	26.93			
24.000	0.0152	26.95			
24.017	0.0152	26.96			
24.033	0.0153	26.96			
24.050	0.0153	26.96			
24.067	0.0153	26.96			
24.083	0.0153	26.96			
24.100	0.0153	26.98			
24.117	0.0152	26.98			
24.133	0.0151	26.98			
24.150	0.0152	26.99			
24.167	0.0151	27.01			
24.183	0.0152	27.03			
24.200	0.0153	27.03			
24.217	0.0154	27.01			
24.233	0.0154	27.03			
24.250	0.0154	27.06			
24.267	0.0154	27.04			
24.283	0.0154	27.06			
24.300	0.0154	27.08			
24.317	0.0153	27.11			
24.333	0.0153	27.11			
24.350	0.0154	27.11			
24.367	0.0154	27.12			
24.383	0.0154	27.12			
24.400	0.0154	27.14			
24.417	0.0154	27.14			
24.433	0.0154	27.14			
24.450	0.0154	27.14			
24.467	0.0154	27.16			
24.483	0.0154	27.16			
24.500	0.0154	27.16			
24.517	0.0154	27.13			
24.533	0.0154	27.13			
24.550	0.0153	27.14			
24.567	0.0152	27.14			
24.583	0.0152	27.14			
24.600	0.0152	27.14			
24.617	0.0152	27.16			
24.633	0.0153	27.16			
24.650	0.0153	27.17			
24.667	0.0153	27.17			
24.683	0.0152	27.16			
24.700	0.0151	27.16			
24.717	0.0151	27.16			
24.733	0.0151	27.14			
24.750	0.0152	27.16			
24.767	0.0152	27.16			
24.783	0.0152	27.16			
24.800	0.0152	27.16			
24.817	0.0151	27.16			
24.833	0.0151	27.16			
24.850	0.0151	27.16			
24.867	0.0151	27.16			
24.883	0.0151	27.16			
24.900	0.0151	27.16			
24.917	0.0151	27.16			
24.933	0.0151	27.16			
24.950	0.0150	27.16			
24.967	0.0151	27.16			
24.983	0.0151	27.16			
25.000	0.0152	27.16			
25.017	0.0152	27.16			
25.033	0.0152	27.16			
25.050	0.0152	27.16			
25.067	0.0153	27.16			
25.083	0.0152	27.16			
25.100	0.0152	27.17			
25.117	0.0152	27.16			
25.133	0.0152	27.16			
25.150	0.0152	27.17			
25.167	0.0151	27.17			
25.183	0.0151	27.16			
25.200	0.0152	27.17			
25.217	0.0151	27.16			
25.233	0.0152	27.16			
25.250	0.0151	27.16			
25.267	0.0152	27.16			
25.283	0.0152	27.16			
25.300	0.0152	27.16			
25.317	0.0152	27.17			
25.333	0.0152	27.13			
25.350	0.0151	27.13			
25.367	0.0150	27.13			
25.383	0.0151	27.13			
25.400	0.0151	27.13			
25.417	0.0150	27.13			
25.433	0.0151	27.11			
25.450	0.0152	27.11			
25.467	0.0153	27.11			
25.483	0.0153	27.13			
25.500	0.0153	27.13			
25.517	0.0153	27.15			
25.533	0.0154	27.13			
25.550	0.0155	27.11			
25.567	0.0156	27.13			
25.583	0.0157	27.11			
25.600	0.0158	27.13			
25.617	0.0160	27.13			
25.633	0.0162	27.13			
25.650	0.0163	27.13			
25.667	0.0165	27.11			
25.683	0.0167	27.11			
25.700	0.0169	27.11			
25.717	0.0172	27.11			
25.733	0.0176	27.11			
25.750	0.0181	27.10			
25.767	0.0184	27.11			
25.783	0.0188	27.11			
25.800	0.0193	27.13			
25.817	0.0199	27.11			
25.833	0.0204	27.13			
25.850	0.0210	27.11			
25.867	0.0217	27.11			
25.883	0.0224	27.13			
25.900	0.0230	27.15			
25.917	0.0238	27.13			
25.933	0.0247	27.15			
25.950	0.0256	27.16			
25.967	0.0265	27.18			
25.983	0.0274	27.18			
26.000	0.0285	27.18			
26.017	0.0294	27.18			
26.033	0.0300	27.13			
26.050	0.0302	27.11			
26.067	0.0302	27.10			
26.083	0.0302	27.10			
26.100	0.0302	27.10			
26.117	0.0301	27.10			
26.133	0.0300	27.08			
26.150	0.0300	27.08			
26.167	0.0299	27.07			
26.183	0.0297	27.07			
26.200	0.0297	27.07			
26.217	0.0296	27.07			
26.233	0.0296	27.07			
26.250	0.0296	27.09			
26.267	0.0295	27.11			
26.283	0.0294	27.09			
26.300	0.0294	27.09			
26.317	0.0295	27.09			
26.333	0.0293	27.08			
26.350	0.0292	27.08			
26.367	0.0291	27.09			
26.383	0.0289	27.08			
26.400	0.0289	27.08			
26.417	0.0289	27.09			
26.433	0.0289	27.08			
26.450	0.0288	27.06			
26.467	0.0287	27.08			
26.483	0.0286	27.08			
26.500	0.0287	27.08			
26.517	0.0297	27.14			
26.533	0.0301	27.16			
26.550	0.0301	27.14			
26.567	0.0304	27.13			
26.583	0.0316	27.14			
26.600	0.0328	27.16			
26.617	0.0344	27.17			
26.633	0.0361	27.16			
26.650	0.0371	27.16			
26.667	0.0381	27.19			
26.683	0.0396	27.21			
26.700	0.0412	27.24			
26.717	0.0428	27.26			
26.733	0.0446	27.29			
26.750	0.0463	27.34			
26.767	0.0477	27.35			
26.783	0.0483	27.34			
26.800	0.0483	27.30			
26.817	0.0484	27.30			
26.833	0.0485	27.30			
26.850	0.0485	27.30			
26.867	0.0486	27.30			
26.883	0.0486	27.30			
26.900	0.0486	27.30			
26.917	0.0486	27.30			
26.933	0.0486	27.32			
26.950	0.0486	27.30			
26.967	0.0486	27.29			
26.983	0.0485	27.29			
27.000	0.0484	27.30			
27.017	0.0485	27.30			
27.033	0.0485	27.30			
27.050	0.0485	27.29			
27.067	0.0484	27.30			
27.083	0.0483	27.29			
27.100	0.0482	27.29			
27.117	0.0481	27.29			
27.133	0.0481	27.30			
27.150	0.0481	27.30			
27.167	0.0480	27.27			
27.183	0.0478	27.27			
27.200	0.0477	27.29			
27.217	0.0478	27.27			
27.233	0.0478	27.29			
27.250	0.0478	27.30			
27.267	0.0477	27.30			
27.283	0.0478	27.30			
27.300	0.0478	27.32			
27.317	0.0477	27.30			
27.333	0.0474	27.30			
27.350	0.0473	27.30			
27.367	0.0473	27.30			
27.383	0.0473	27.30			
27.400	0.0472	27.30			
27.417	0.0470	27.30			
27.433	0.0470	27.30			
27.450	0.0470	27.30			
27.467	0.0469	27.30			
27.483	0.0469	27.30			
27.500	0.0469	27.30			
27.517	0.0469	27.30			
27.533	0.0468	27.30			
27.550	0.0467	27.30			
27.567	0.0466	27.29			
27.583	0.0467	27.29			
27.600	0.0467	27.29			
27.617	0.0467	27.29			
27.633	0.0466	27.29			
27.650	0.0466	27.29			
27.667	0.0465	27.30			
27.683	0.0465	27.30			
27.700	0.0465	27.30			
27.717	0.0465	27.29			
27.733	0.0464	27.29			
27.750	0.0463	27.29			
27.767	0.0462	27.30			
27.783	0.0463	27.29			
27.800	0.0463	27.29			
27.817	0.0464	27.29			
27.833	0.0463	27.30			
27.850	0.0463	27.30			
27.867	0.0463	27.30			
27.883	0.0462	27.29			
27.900	0.0462	27.29			
27.917	0.0462	27.29			
27.933	0.0462	27.29			
27.950	0.0463	27.30			
27.967	0.0462	27.30			
27.983	0.0461	27.29			
28.000	0.0461	27.29			
28.017	0.0460	27.29			
28.033	0.0460	27.27			
28.050	0.0460	27.27			
28.067	0.0460	27.27			
28.083	0.0460	27.27			
28.100	0.0460	27.27			
28.117	0.0459	27.27			
28.133	0.0460	27.29			
28.150	0.0461	27.27			
28.167	0.0460	27.27			
28.183	0.0459	27.27			
28.200	0.0459	27.27			
28.217	0.0458	27.29			
28.233	0.0459	27.29			
28.250	0.0458	27.27			
28.267	0.0458	27.27			
28.283	0.0458	27.27			
28.300	0.0458	27.27			
28.317	0.0458	27.27			
28.333	0.0458	27.26			
28.350	0.0465	27.37			
28.367	0.0480	27.51			
28.383	0.0490	27.51			
28.400	0.0489	27.46			
28.417	0.0494	27.46			
28.433	0.0496	27.51			
28.450	0.0505	27.54			
28.467	0.0517	27.56			
28.483	0.0525	27.61			
28.500	0.0531	27.66			
28.517	0.0539	27.67			
28.533	0.0549	27.72			
28.550	0.0560	27.79			
28.567	0.0573	27.82			
28.583	0.0586	27.88			
28.600	0.0600	27.95			
28.617	0.0612	27.98			
28.633	0.0623	28.04			
28.650	0.0630	28.09			
28.667	0.0636	28.14			
28.683	0.0640	28.20			
28.700	0.0644	28.25			
28.717	0.0647	28.30			
28.733	0.0650	28.36			
28.750	0.0652	28.41			
28.767	0.0652	28.46			
28.783	0.0653	28.48			
28.800	0.0654	28.54			
28.817	0.0653	28.59			
28.833	0.0652	28.64			
28.850	0.0653	28.69			
28.867	0.0654	28.72			
28.883	0.0655	28.77			
28.900	0.0656	28.81			
28.917	0.0657	28.86			
28.933	0.0658	28.89			
28.950	0.0660	28.93			
28.967	0.0661	28.97			
28.983	0.0662	28.99			
29.000	0.0663	29.04			
29.017	0.0664	29.05			
29.033	0.0666	29.07			
29.050	0.0668	29.12			
29.067	0.0669	29.08			
29.083	0.0671	29.11			
29.100	0.0673	29.13			
29.117	0.0675	29.16			
29.133	0.0676	29.19			
29.150	0.0677	29.24			
29.167	0.0678	29.25			
29.183	0.0679	29.27			
29.200	0.0681	29.29			
29.217	0.0681	29.32			
29.233	0.0682	29.33			
29.250	0.0683	29.35			
29.267	0.0685	29.37			
29.283	0.0686	29.38			
29.300	0.0687	29.41			
29.317	0.0688	29.43			
29.333	0.0690	29.45			
29.350	0.0691	29.46			
29.367	0.0692	29.45			
29.383	0.0693	29.46			
29.400	0.0692	29.43			
29.417	0.0693	29.44			
29.433	0.0695	29.46			
29.450	0.0696	29.48			
29.467	0.0697	29.49			
29.483	0.0698	29.51			
29.500	0.0698	29.52			
29.517	0.0699	29.52			
29.533	0.0699	29.54			
29.550	0.0700	29.56			
29.567	0.0701	29.57			
29.583	0.0702	29.57			
29.600	0.0703	29.57			
29.617	0.0704	29.59			
29.633	0.0704	29.60			
29.650	0.0705	29.57			
29.667	0.0706	29.57			
29.683	0.0707	29.59			
29.700	0.0708	29.59			
29.717	0.0707	29.60			
29.733	0.0708	29.60			
29.750	0.0710	29.60			
29.767	0.0710	29.62			
29.783	0.0711	29.63			
29.800	0.0711	29.62			
29.817	0.0712	29.63			
29.833	0.0712	29.63			
29.850	0.0712	29.65			
29.867	0.0713	29.65			
29.883	0.0715	29.67			
29.900	0.0714	29.68			
29.917	0.0715	29.70			
29.933	0.0716	29.70			
29.950	0.0717	29.70			
29.967	0.0716	29.70			
29.983	0.0716	29.71			
30.000	0.0716	29.73			
30.017	0.0716	29.73			
30.033	0.0717	29.73			
30.050	0.0718	29.73			
30.067	0.0719	29.75			
30.083	0.0718	29.76			
30.100	0.0718	29.76			
30.117	0.0719	29.76			
30.133	0.0719	29.76			
30.150	0.0719	29.76			
30.167	0.0719	29.76			
30.183	0.0720	29.78			
30.200	0.0721	29.78			
30.217	0.0721	29.78			
30.233	0.0719	29.79			
30.250	0.0719	29.79			
30.267	0.0719	29.81			
30.283	0.0720	29.81			
30.300	0.0721	29.81			
30.317	0.0721	29.81			
30.333	0.0721	29.81			
30.350	0.0722	29.83			
30.367	0.0722	29.81			
30.383	0.0722	29.83			
30.400	0.0723	29.83			
30.417	0.0722	29.84			
30.433	0.0721	29.83			
30.450	0.0721	29.83			
30.467	0.0722	29.83			
30.483	0.0722	29.83			
30.500	0.0722	29.83			
30.517	0.0723	29.84			
30.533	0.0723	29.83			
30.550	0.0723	29.84			
30.567	0.0723	29.84			
30.583	0.0722	29.84			
30.600	0.0723	29.86			
30.617	0.0722	29.84			
30.633	0.0721	29.79			
30.650	0.0720	29.79			
30.667	0.0721	29.81			
30.683	0.0722	29.81			
30.700	0.0722	29.79			
30.717	0.0721	29.81			
30.733	0.0722	29.82			
30.750	0.0722	29.81			
30.767	0.0722	29.81			
30.783	0.0722	29.81			
30.800	0.0721	29.81			
30.817	0.0721	29.81			
30.833	0.0721	29.82			
30.850	0.0722	29.82			
30.867	0.0722	29.81			
30.883	0.0722	29.81			
30.900	0.0721	29.81			
30.917	0.0721	29.81			
30.933	0.0721	29.82			
30.950	0.0721	29.82			
30.967	0.0721	29.82			
30.983	0.0720	29.84			
31.000	0.0720	29.84			
31.017	0.0720	29.82			
31.033	0.0720	29.84			
31.050	0.0721	29.82			
31.067	0.0721	29.82			
31.083	0.0721	29.84			
31.100	0.0721	29.82			
31.117	0.0720	29.81			
31.133	0.0720	29.81			
31.150	0.0721	29.82			
31.167	0.0722	29.84			
31.183	0.0721	29.81			
31.200	0.0720	29.81			
31.217	0.0721	29.84			
31.233	0.0720	29.84			
31.250	0.0720	29.84			
31.267	0.0719	29.84			
31.283	0.0719	29.84			
31.300	0.0719	29.82			
31.317	0.0719	29.82			
31.333	0.0719	29.84			
31.350	0.0719	29.84			
31.367	0.0719	29.84			
31.383	0.0719	29.82			
31.400	0.0720	29.84			
31.417	0.0720	29.84			
31.433	0.0719	29.84			
31.450	0.0718	29.84			
31.467	0.0718	29.82			
31.483	0.0719	29.82			
31.500	0.0720	29.84			
31.517	0.0720	29.84			
31.533	0.0720	29.82			
31.550	0.0718	29.82			
31.567	0.0719	29.86			
31.583	0.0719	29.84			
31.600	0.0719	29.82			
31.617	0.0718	29.84			
31.633	0.0719	29.84			
31.650	0.0718	29.84			
31.667	0.0718	29.84			
31.683	0.0718	29.84			
31.700	0.0719	29.82			
31.717	0.0719	29.84			
31.733	0.0720	29.84			
31.750	0.0720	29.82			
31.767	0.0720	29.82			
31.783	0.0719	29.82			
31.800	0.0719	29.82			
31.817	0.0718	29.82			
31.833	0.0718	29.84			
31.850	0.0718	29.82			
31.867	0.0718	29.82			
31.883	0.0719	29.84			
31.900	0.0719	29.84			
31.917	0.0719	29.82			
31.933	0.0718	29.81			
31.950	0.0718	29.82			
31.967	0.0718	29.82			
31.983	0.0719	29.82			
32.000	0.0718	29.84			
32.017	0.0717	29.84			
32.033	0.0718	29.82			
32.050	0.0718	29.82			
32.067	0.0718	29.82			
32.083	0.0720	29.82			
32.100	0.0720	29.84			
32.117	0.0719	29.84			
32.133	0.0719	29.84			
32.150	0.0719	29.84			
32.167	0.0719	29.82			
32.183	0.0719	29.82			
32.200	0.0718	29.84			
32.217	0.0718	29.84			
32.233	0.0719	29.86			
32.250	0.0720	29.84			
32.267	0.0719	29.82			
32.283	0.0718	29.82			
32.300	0.0717	29.84			
32.317	0.0717	29.84			
32.333	0.0717	29.84			
32.350	0.0717	29.82			
32.367	0.0718	29.82			
32.383	0.0718	29.82			
32.400	0.0718	29.82			
32.417	0.0717	29.82			
32.433	0.0717	29.82			
32.450	0.0718	29.82			
32.467	0.0718	29.82			
32.483	0.0718	29.82			
32.500	0.0718	29.82			
32.517	0.0718	29.82			
32.533	0.0718	29.82			
32.550	0.0718	29.84			
32.567	0.0718	29.84			
32.583	0.0718	29.82			
32.600	0.0718	29.82			
32.617	0.0717	29.82			
32.633	0.0717	29.82			
32.650	0.0717	29.84			
32.667	0.0717	29.82			
32.683	0.0718	29.82			
32.700	0.0718	29.84			
32.717	0.0717	29.82			
32.733	0.0717	29.84			
32.750	0.0717	29.84			
32.767	0.0717	29.84			
32.783	0.0716	29.82			
32.800	0.0716	29.84			
32.817	0.0717	29.84			
32.833	0.0717	29.84			
32.850	0.0716	29.84			
32.867	0.0716	29.84			
32.883	0.0717	29.84			
32.900	0.0718	29.82			
32.917	0.0718	29.82			
32.933	0.0717	29.82			
32.950	0.0717	29.84			
32.967	0.0717	29.82			
32.983	0.0718	29.82			
33.000	0.0717	29.82			
33.017	0.0718	29.82			
33.033	0.0718	29.82			
33.050	0.0717	29.82			
33.067	0.0717	29.82			
33.083	0.0717	29.81			
33.100	0.0716	29.81			
33.117	0.0717	29.81			
33.133	0.0717	29.81			
33.150	0.0717	29.82			
33.167	0.0718	29.81			
33.183	0.0717	29.81			
33.200	0.0716	29.81			
33.217	0.0716	29.81			
33.233	0.0716	29.81			
33.250	0.0716	29.81			
33.267	0.0717	29.81			
33.283	0.0717	29.81			
33.300	0.0717	29.81			
33.317	0.0717	29.82			
33.333	0.0717	29.82			
33.350	0.0717	29.82			
33.367	0.0716	29.81			
33.383	0.0716	29.79			
33.400	0.0716	29.81			
33.417	0.0716	29.81			
33.433	0.0716	29.81			
33.450	0.0716	29.81			
33.467	0.0716	29.81			
33.483	0.0716	29.81			
33.500	0.0716	29.82			
