Methods Information:
30.04.2024 12:38:17
<untitled>  
List:  Volume(ml)       Buffer    ml/min
 ->    0.00 Collect All:  1.50 ml 
01     0.00 to    6.00 BUFFER A     0.50
--------------------------------------------------
--------------------------------------------------
30.04.2024 12:43:40
<untitled>  
List:  Volume(ml)       Buffer    ml/min
01     0.00 to    5.00 BUFFER A     1.00
--------------------------------------------------
--------------------------------------------------
30.04.2024 13:20:54
<untitled>  
List:  Volume(ml)       Buffer    ml/min
 ->    0.00 Collect All:  1.50 ml 
01     0.00 to   20.00  0-100%B     0.70
02    20.00 to   23.00 BUFFER B     1.00
--------------------------------------------------
--------------------------------------------------
30.04.2024 13:29:32
<untitled>  
List:  Volume(ml)       Buffer    ml/min
01     0.00 to    5.00 BUFFER B     1.00
--------------------------------------------------
--------------------------------------------------
Time [min.]:	UV [A.U.]:	Conductivity [mS/cm]:	Events:		
0.000	-0.0002	7.48	Start  0.00 min		
0.017	-0.0003	7.46	Fraction  3.00 min		
0.033	-0.0003	7.46	Fraction  6.00 min		
0.050	-0.0004	7.46	Fraction  9.00 min		
0.067	-0.0004	7.46	Fraction  12.00 min		
0.083	-0.0003	7.46	End  12.01 min		
0.100	-0.0002	7.46	Start  12.01 min		
0.117	-0.0002	7.44	End  17.02 min		
0.133	-0.0002	7.46	Start  17.02 min		
0.150	-0.0002	7.44	Fraction  19.17 min		
0.167	-0.0002	7.44	Fraction  21.31 min		
0.183	-0.0003	7.44	Fraction  23.45 min		
0.200	-0.0002	7.44	Fraction  25.59 min		
0.217	0.0000	7.44	Fraction  27.74 min		
0.233	0.0001	7.44	Fraction  29.88 min		
0.250	0.0002	7.46	Fraction  32.02 min		
0.267	0.0002	7.46	Fraction  34.17 min		
0.283	0.0001	7.44	Fraction  36.31 min		
0.300	0.0001	7.44	Fraction  38.45 min		
0.317	0.0000	7.44	Fraction  40.59 min		
0.333	-0.0001	7.43	Fraction  42.74 min		
0.350	-0.0002	7.43	Fraction  44.88 min		
0.367	-0.0003	7.44	Fraction  46.60 min		
0.383	-0.0003	7.44	Fraction  48.10 min		
0.400	-0.0004	7.43	Fraction  48.60 min		
0.417	-0.0002	7.43	End  48.60 min		
0.433	-0.0001	7.43	Start  48.60 min		
0.450	-0.0001	7.43	End  53.61 min		
0.467	-0.0001	7.43			
0.483	-0.0001	7.43			
0.500	-0.0001	7.43			
0.517	-0.0001	7.43			
0.533	-0.0001	7.43			
0.550	0.0000	7.43			
0.567	-0.0001	7.43			
0.583	-0.0001	7.43			
0.600	-0.0001	7.43			
0.617	-0.0001	7.43			
0.633	-0.0001	7.44			
0.650	-0.0001	7.44			
0.667	-0.0001	7.44			
0.683	-0.0002	7.43			
0.700	-0.0002	7.43			
0.717	-0.0001	7.43			
0.733	-0.0002	7.43			
0.750	-0.0002	7.43			
0.767	-0.0001	7.43			
0.783	-0.0002	7.43			
0.800	-0.0003	7.43			
0.817	-0.0003	7.43			
0.833	-0.0003	7.41			
0.850	-0.0002	7.41			
0.867	-0.0002	7.41			
0.883	-0.0002	7.41			
0.900	-0.0003	7.41			
0.917	-0.0003	7.39			
0.933	-0.0003	7.40			
0.950	-0.0002	7.40			
0.967	-0.0002	7.39			
0.983	-0.0002	7.39			
1.000	-0.0002	7.37			
1.017	-0.0001	7.37			
1.033	-0.0002	7.39			
1.050	-0.0002	7.39			
1.067	-0.0002	7.39			
1.083	-0.0003	7.39			
1.100	-0.0003	7.37			
1.117	-0.0004	7.37			
1.133	-0.0003	7.35			
1.150	-0.0004	7.35			
1.167	-0.0004	7.35			
1.183	-0.0003	7.35			
1.200	-0.0003	7.37			
1.217	-0.0003	7.37			
1.233	-0.0002	7.37			
1.250	-0.0001	7.35			
1.267	-0.0002	7.35			
1.283	-0.0004	7.35			
1.300	-0.0005	7.35			
1.317	-0.0005	7.35			
1.333	-0.0004	7.35			
1.350	-0.0004	7.35			
1.367	-0.0004	7.37			
1.383	-0.0005	7.35			
1.400	-0.0005	7.35			
1.417	-0.0004	7.37			
1.433	-0.0003	7.35			
1.450	-0.0003	7.33			
1.467	-0.0002	7.33			
1.483	-0.0001	7.33			
1.500	-0.0002	7.33			
1.517	-0.0004	7.33			
1.533	-0.0006	7.33			
1.550	-0.0005	7.33			
1.567	-0.0005	7.32			
1.583	-0.0003	7.33			
1.600	-0.0004	7.33			
1.617	-0.0005	7.32			
1.633	-0.0006	7.32			
1.650	-0.0005	7.32			
1.667	-0.0006	7.32			
1.683	-0.0006	7.32			
1.700	-0.0007	7.32			
1.717	-0.0005	7.32			
1.733	-0.0006	7.30			
1.750	-0.0006	7.30			
1.767	-0.0006	7.32			
1.783	-0.0006	7.30			
1.800	-0.0007	7.30			
1.817	-0.0006	7.30			
1.833	-0.0006	7.30			
1.850	-0.0005	7.30			
1.867	-0.0004	7.30			
1.883	-0.0005	7.30			
1.900	-0.0005	7.30			
1.917	-0.0004	7.29			
1.933	-0.0004	7.27			
1.950	-0.0005	7.29			
1.967	-0.0006	7.29			
1.983	-0.0007	7.29			
2.000	-0.0006	7.29			
2.017	-0.0006	7.29			
2.033	-0.0006	7.29			
2.050	-0.0005	7.30			
2.067	-0.0005	7.30			
2.083	-0.0005	7.29			
2.100	-0.0006	7.27			
2.117	-0.0007	7.27			
2.133	-0.0007	7.29			
2.150	-0.0005	7.30			
2.167	-0.0005	7.30			
2.183	-0.0006	7.30			
2.200	-0.0005	7.30			
2.217	-0.0005	7.29			
2.233	-0.0007	7.29			
2.250	-0.0008	7.29			
2.267	-0.0007	7.29			
2.283	-0.0006	7.29			
2.300	-0.0006	7.29			
2.317	-0.0006	7.27			
2.333	-0.0006	7.27			
2.350	-0.0006	7.29			
2.367	-0.0005	7.27			
2.383	-0.0006	7.27			
2.400	-0.0006	7.27			
2.417	-0.0007	7.27			
2.433	-0.0007	7.24			
2.450	-0.0006	7.26			
2.467	-0.0006	7.26			
2.483	-0.0007	7.27			
2.500	-0.0006	7.26			
2.517	-0.0007	7.26			
2.533	-0.0008	7.26			
2.550	-0.0008	7.26			
2.567	-0.0007	7.26			
2.583	-0.0006	7.24			
2.600	-0.0006	7.24			
2.617	-0.0006	7.26			
2.633	-0.0006	7.24			
2.650	-0.0006	7.24			
2.667	-0.0006	7.26			
2.683	-0.0006	7.28			
2.700	-0.0008	7.26			
2.717	-0.0007	7.26			
2.733	-0.0007	7.26			
2.750	-0.0007	7.26			
2.767	-0.0007	7.26			
2.783	-0.0008	7.24			
2.800	-0.0008	7.24			
2.817	-0.0007	7.24			
2.833	-0.0006	7.26			
2.850	-0.0006	7.26			
2.867	-0.0007	7.24			
2.883	-0.0006	7.24			
2.900	-0.0006	7.26			
2.917	-0.0006	7.26			
2.933	-0.0006	7.26			
2.950	-0.0006	7.26			
2.967	-0.0006	7.24			
2.983	-0.0006	7.24			
3.000	-0.0006	7.24			
3.017	-0.0006	7.26			
3.033	-0.0007	7.24			
3.050	-0.0007	7.24			
3.067	-0.0007	7.24			
3.083	-0.0007	7.24			
3.100	-0.0007	7.24			
3.117	-0.0006	7.26			
3.133	-0.0006	7.24			
3.150	-0.0007	7.24			
3.167	-0.0006	7.24			
3.183	-0.0007	7.24			
3.200	-0.0007	7.24			
3.217	-0.0007	7.24			
3.233	-0.0006	7.24			
3.250	-0.0005	7.24			
3.267	-0.0006	7.24			
3.283	-0.0005	7.24			
3.300	-0.0001	7.23			
3.317	0.0006	7.23			
3.333	0.0015	7.24			
3.350	0.0022	7.23			
3.367	0.0032	7.23			
3.383	0.0034	7.24			
3.400	0.0035	7.24			
3.417	0.0030	7.24			
3.433	0.0028	7.23			
3.450	0.0025	7.23			
3.467	0.0024	7.24			
3.483	0.0024	7.23			
3.500	0.0021	7.24			
3.517	0.0015	7.23			
3.533	0.0011	7.23			
3.550	0.0010	7.23			
3.567	0.0008	7.23			
3.583	0.0007	7.23			
3.600	0.0006	7.24			
3.617	0.0006	7.23			
3.633	0.0007	7.23			
3.650	0.0009	7.23			
3.667	0.0011	7.23			
3.683	0.0009	7.23			
3.700	0.0008	7.23			
3.717	0.0008	7.23			
3.733	0.0008	7.24			
3.750	0.0009	7.23			
3.767	0.0009	7.23			
3.783	0.0011	7.24			
3.800	0.0012	7.23			
3.817	0.0012	7.21			
3.833	0.0011	7.23			
3.850	0.0010	7.23			
3.867	0.0010	7.23			
3.883	0.0008	7.23			
3.900	0.0007	7.23			
3.917	0.0006	7.23			
3.933	0.0006	7.23			
3.950	0.0005	7.23			
3.967	0.0004	7.23			
3.983	0.0003	7.23			
4.000	0.0004	7.23			
4.017	0.0004	7.23			
4.033	0.0004	7.21			
4.050	0.0003	7.21			
4.067	0.0002	7.21			
4.083	0.0003	7.23			
4.100	0.0003	7.23			
4.117	0.0004	7.23			
4.133	0.0003	7.23			
4.150	0.0003	7.23			
4.167	0.0003	7.23			
4.183	0.0003	7.23			
4.200	0.0003	7.23			
4.217	0.0004	7.23			
4.233	0.0004	7.23			
4.250	0.0004	7.23			
4.267	0.0005	7.23			
4.283	0.0005	7.23			
4.300	0.0006	7.23			
4.317	0.0006	7.23			
4.333	0.0004	7.23			
4.350	0.0002	7.21			
4.367	0.0001	7.23			
4.383	0.0002	7.23			
4.400	0.0001	7.23			
4.417	0.0000	7.23			
4.433	0.0000	7.23			
4.450	0.0000	7.23			
4.467	0.0001	7.23			
4.483	0.0002	7.23			
4.500	0.0002	7.23			
4.517	0.0001	7.23			
4.533	0.0001	7.23			
4.550	0.0001	7.23			
4.567	0.0000	7.23			
4.583	0.0001	7.23			
4.600	0.0002	7.23			
4.617	0.0002	7.23			
4.633	0.0003	7.23			
4.650	0.0003	7.23			
4.667	0.0003	7.23			
4.683	0.0004	7.23			
4.700	0.0005	7.23			
4.717	0.0006	7.23			
4.733	0.0007	7.23			
4.750	0.0008	7.24			
4.767	0.0009	7.23			
4.783	0.0010	7.23			
4.800	0.0010	7.24			
4.817	0.0011	7.24			
4.833	0.0013	7.23			
4.850	0.0014	7.23			
4.867	0.0014	7.24			
4.883	0.0016	7.24			
4.900	0.0019	7.24			
4.917	0.0021	7.26			
4.933	0.0022	7.24			
4.950	0.0023	7.26			
4.967	0.0025	7.26			
4.983	0.0026	7.26			
5.000	0.0026	7.26			
5.017	0.0028	7.28			
5.033	0.0030	7.26			
5.050	0.0033	7.28			
5.067	0.0035	7.28			
5.083	0.0037	7.28			
5.100	0.0039	7.28			
5.117	0.0041	7.29			
5.133	0.0043	7.29			
5.150	0.0044	7.29			
5.167	0.0046	7.31			
5.183	0.0049	7.29			
5.200	0.0051	7.31			
5.217	0.0054	7.31			
5.233	0.0055	7.31			
5.250	0.0057	7.31			
5.267	0.0060	7.32			
5.283	0.0063	7.34			
5.300	0.0067	7.32			
5.317	0.0069	7.32			
5.333	0.0071	7.34			
5.350	0.0073	7.34			
5.367	0.0074	7.35			
5.383	0.0076	7.35			
5.400	0.0078	7.37			
5.417	0.0080	7.35			
5.433	0.0082	7.37			
5.450	0.0084	7.37			
5.467	0.0086	7.38			
5.483	0.0087	7.38			
5.500	0.0090	7.38			
5.517	0.0093	7.38			
5.533	0.0094	7.40			
5.550	0.0097	7.40			
5.567	0.0099	7.42			
5.583	0.0102	7.42			
5.600	0.0105	7.42			
5.617	0.0107	7.42			
5.633	0.0110	7.42			
5.650	0.0112	7.43			
5.667	0.0113	7.43			
5.683	0.0117	7.45			
5.700	0.0120	7.43			
5.717	0.0123	7.43			
5.733	0.0125	7.45			
5.750	0.0126	7.45			
5.767	0.0128	7.45			
5.783	0.0130	7.46			
5.800	0.0132	7.45			
5.817	0.0134	7.45			
5.833	0.0136	7.46			
5.850	0.0139	7.48			
5.867	0.0140	7.48			
5.883	0.0142	7.49			
5.900	0.0144	7.49			
5.917	0.0145	7.49			
5.933	0.0148	7.49			
5.950	0.0149	7.51			
5.967	0.0151	7.51			
5.983	0.0154	7.51			
6.000	0.0155	7.51			
6.017	0.0159	7.51			
6.033	0.0160	7.51			
6.050	0.0161	7.52			
6.067	0.0162	7.51			
6.083	0.0165	7.51			
6.100	0.0169	7.52			
6.117	0.0170	7.51			
6.133	0.0172	7.52			
6.150	0.0175	7.52			
6.167	0.0177	7.54			
6.183	0.0179	7.52			
6.200	0.0179	7.54			
6.217	0.0181	7.54			
6.233	0.0184	7.55			
6.250	0.0185	7.54			
6.267	0.0188	7.55			
6.283	0.0189	7.55			
6.300	0.0191	7.54			
6.317	0.0192	7.54			
6.333	0.0192	7.55			
6.350	0.0194	7.55			
6.367	0.0196	7.55			
6.383	0.0198	7.55			
6.400	0.0200	7.55			
6.417	0.0200	7.55			
6.433	0.0201	7.55			
6.450	0.0204	7.55			
6.467	0.0205	7.55			
6.483	0.0206	7.55			
6.500	0.0208	7.55			
6.517	0.0210	7.55			
6.533	0.0212	7.55			
6.550	0.0212	7.55			
6.567	0.0214	7.55			
6.583	0.0215	7.57			
6.600	0.0217	7.57			
6.617	0.0218	7.57			
6.633	0.0218	7.55			
6.650	0.0220	7.57			
6.667	0.0220	7.55			
6.683	0.0221	7.57			
6.700	0.0222	7.55			
6.717	0.0223	7.57			
6.733	0.0225	7.57			
6.750	0.0226	7.55			
6.767	0.0227	7.57			
6.783	0.0228	7.57			
6.800	0.0227	7.55			
6.817	0.0228	7.55			
6.833	0.0229	7.57			
6.850	0.0229	7.57			
6.867	0.0232	7.55			
6.883	0.0233	7.55			
6.900	0.0234	7.55			
6.917	0.0235	7.55			
6.933	0.0234	7.57			
6.950	0.0235	7.57			
6.967	0.0235	7.57			
6.983	0.0236	7.57			
7.000	0.0236	7.57			
7.017	0.0236	7.57			
7.033	0.0237	7.57			
7.050	0.0239	7.57			
7.067	0.0240	7.55			
7.083	0.0240	7.55			
7.100	0.0241	7.57			
7.117	0.0242	7.57			
7.133	0.0242	7.57			
7.150	0.0242	7.55			
7.167	0.0242	7.55			
7.183	0.0242	7.55			
7.200	0.0244	7.55			
7.217	0.0243	7.55			
7.233	0.0243	7.57			
7.250	0.0243	7.55			
7.267	0.0243	7.55			
7.283	0.0244	7.55			
7.300	0.0244	7.55			
7.317	0.0245	7.55			
7.333	0.0246	7.55			
7.350	0.0245	7.55			
7.367	0.0245	7.54			
7.383	0.0244	7.54			
7.400	0.0244	7.54			
7.417	0.0244	7.54			
7.433	0.0244	7.54			
7.450	0.0245	7.54			
7.467	0.0245	7.52			
7.483	0.0245	7.52			
7.500	0.0247	7.52			
7.517	0.0246	7.52			
7.533	0.0247	7.52			
7.550	0.0246	7.52			
7.567	0.0245	7.52			
7.583	0.0246	7.52			
7.600	0.0246	7.52			
7.617	0.0246	7.51			
7.633	0.0247	7.51			
7.650	0.0248	7.51			
7.667	0.0250	7.51			
7.683	0.0249	7.51			
7.700	0.0248	7.52			
7.717	0.0247	7.51			
7.733	0.0248	7.49			
7.750	0.0251	7.51			
7.767	0.0250	7.51			
7.783	0.0249	7.49			
7.800	0.0249	7.51			
7.817	0.0248	7.51			
7.833	0.0248	7.51			
7.850	0.0247	7.49			
7.867	0.0249	7.48			
7.883	0.0250	7.48			
7.900	0.0250	7.48			
7.917	0.0251	7.48			
7.933	0.0251	7.49			
7.950	0.0250	7.49			
7.967	0.0252	7.48			
7.983	0.0250	7.48			
8.000	0.0249	7.48			
8.017	0.0250	7.48			
8.033	0.0252	7.46			
8.050	0.0253	7.46			
8.067	0.0250	7.46			
8.083	0.0250	7.46			
8.100	0.0249	7.46			
8.117	0.0250	7.46			
8.133	0.0250	7.46			
8.150	0.0249	7.46			
8.167	0.0249	7.45			
8.183	0.0249	7.45			
8.200	0.0249	7.46			
8.217	0.0250	7.45			
8.233	0.0249	7.46			
8.250	0.0250	7.46			
8.267	0.0250	7.45			
8.283	0.0250	7.45			
8.300	0.0250	7.45			
8.317	0.0249	7.43			
8.333	0.0248	7.43			
8.350	0.0246	7.43			
8.367	0.0246	7.43			
8.383	0.0246	7.43			
8.400	0.0245	7.42			
8.417	0.0246	7.43			
8.433	0.0247	7.43			
8.450	0.0244	7.43			
8.467	0.0243	7.43			
8.483	0.0242	7.43			
8.500	0.0242	7.42			
8.517	0.0242	7.42			
8.533	0.0240	7.42			
8.550	0.0239	7.42			
8.567	0.0237	7.42			
8.583	0.0234	7.40			
8.600	0.0234	7.40			
8.617	0.0235	7.40			
8.633	0.0237	7.42			
8.650	0.0239	7.40			
8.667	0.0239	7.40			
8.683	0.0237	7.38			
8.700	0.0235	7.40			
8.717	0.0235	7.40			
8.733	0.0235	7.38			
8.750	0.0233	7.38			
8.767	0.0235	7.38			
8.783	0.0234	7.38			
8.800	0.0231	7.38			
8.817	0.0232	7.38			
8.833	0.0232	7.38			
8.850	0.0232	7.37			
8.867	0.0232	7.37			
8.883	0.0231	7.37			
8.900	0.0232	7.38			
8.917	0.0231	7.37			
8.933	0.0233	7.37			
8.950	0.0234	7.37			
8.967	0.0233	7.37			
8.983	0.0232	7.35			
9.000	0.0229	7.37			
9.017	0.0228	7.37			
9.033	0.0228	7.37			
9.050	0.0228	7.37			
9.067	0.0230	7.37			
9.083	0.0228	7.37			
9.100	0.0226	7.35			
9.117	0.0226	7.35			
9.133	0.0225	7.35			
9.150	0.0225	7.35			
9.167	0.0224	7.35			
9.183	0.0226	7.35			
9.200	0.0225	7.35			
9.217	0.0223	7.34			
9.233	0.0222	7.34			
9.250	0.0220	7.35			
9.267	0.0219	7.34			
9.283	0.0218	7.35			
9.300	0.0215	7.34			
9.317	0.0216	7.34			
9.333	0.0216	7.34			
9.350	0.0214	7.35			
9.367	0.0214	7.34			
9.383	0.0214	7.34			
9.400	0.0215	7.34			
9.417	0.0213	7.34			
9.433	0.0213	7.32			
9.450	0.0214	7.32			
9.467	0.0211	7.34			
9.483	0.0209	7.35			
9.500	0.0209	7.34			
9.517	0.0207	7.32			
9.533	0.0206	7.34			
9.550	0.0206	7.32			
9.567	0.0206	7.32			
9.583	0.0204	7.34			
9.600	0.0203	7.34			
9.617	0.0203	7.32			
9.633	0.0203	7.31			
9.650	0.0201	7.31			
9.667	0.0200	7.32			
9.683	0.0201	7.32			
9.700	0.0201	7.31			
9.717	0.0198	7.31			
9.733	0.0196	7.31			
9.750	0.0195	7.31			
9.767	0.0194	7.31			
9.783	0.0194	7.31			
9.800	0.0192	7.31			
9.817	0.0192	7.29			
9.833	0.0192	7.29			
9.850	0.0190	7.29			
9.867	0.0190	7.29			
9.883	0.0189	7.31			
9.900	0.0190	7.29			
9.917	0.0189	7.29			
9.933	0.0187	7.29			
9.950	0.0186	7.31			
9.967	0.0184	7.31			
9.983	0.0182	7.31			
10.000	0.0183	7.31			
10.017	0.0181	7.29			
10.033	0.0180	7.29			
10.050	0.0179	7.29			
10.067	0.0180	7.29			
10.083	0.0181	7.29			
10.100	0.0179	7.29			
10.117	0.0178	7.29			
10.133	0.0177	7.29			
10.150	0.0176	7.28			
10.167	0.0175	7.28			
10.183	0.0176	7.29			
10.200	0.0175	7.28			
10.217	0.0171	7.29			
10.233	0.0170	7.29			
10.250	0.0171	7.28			
10.267	0.0170	7.28			
10.283	0.0170	7.28			
10.300	0.0168	7.28			
10.317	0.0166	7.29			
10.333	0.0166	7.28			
10.350	0.0166	7.28			
10.367	0.0165	7.28			
10.383	0.0164	7.28			
10.400	0.0163	7.28			
10.417	0.0163	7.28			
10.433	0.0161	7.28			
10.450	0.0159	7.28			
10.467	0.0161	7.29			
10.483	0.0160	7.28			
10.500	0.0158	7.26			
10.517	0.0158	7.28			
10.533	0.0158	7.28			
10.550	0.0157	7.28			
10.567	0.0155	7.28			
10.583	0.0155	7.26			
10.600	0.0154	7.26			
10.617	0.0152	7.26			
10.633	0.0152	7.26			
10.650	0.0151	7.26			
10.667	0.0150	7.28			
10.683	0.0149	7.26			
10.700	0.0149	7.26			
10.717	0.0151	7.26			
10.733	0.0150	7.26			
10.750	0.0150	7.24			
10.767	0.0149	7.26			
10.783	0.0147	7.26			
10.800	0.0147	7.26			
10.817	0.0146	7.26			
10.833	0.0143	7.26			
10.850	0.0144	7.26			
10.867	0.0144	7.26			
10.883	0.0145	7.26			
10.900	0.0142	7.24			
10.917	0.0142	7.24			
10.933	0.0141	7.26			
10.950	0.0138	7.26			
10.967	0.0137	7.24			
10.983	0.0135	7.24			
11.000	0.0135	7.24			
11.017	0.0134	7.26			
11.033	0.0134	7.24			
11.050	0.0134	7.26			
11.067	0.0134	7.24			
11.083	0.0134	7.23			
11.100	0.0134	7.23			
11.117	0.0131	7.24			
11.133	0.0130	7.24			
11.150	0.0130	7.23			
11.167	0.0131	7.24			
11.183	0.0130	7.24			
11.200	0.0129	7.24			
11.217	0.0128	7.24			
11.233	0.0127	7.23			
11.250	0.0127	7.23			
11.267	0.0127	7.23			
11.283	0.0126	7.24			
11.300	0.0126	7.24			
11.317	0.0125	7.24			
11.333	0.0125	7.23			
11.350	0.0124	7.24			
11.367	0.0123	7.24			
11.383	0.0124	7.24			
11.400	0.0125	7.24			
11.417	0.0124	7.24			
11.433	0.0125	7.24			
11.450	0.0125	7.24			
11.467	0.0124	7.24			
11.483	0.0123	7.23			
11.500	0.0122	7.24			
11.517	0.0122	7.23			
11.533	0.0123	7.23			
11.550	0.0122	7.23			
11.567	0.0122	7.24			
11.583	0.0120	7.24			
11.600	0.0120	7.24			
11.617	0.0120	7.23			
11.633	0.0119	7.23			
11.650	0.0119	7.24			
11.667	0.0119	7.23			
11.683	0.0119	7.23			
11.700	0.0118	7.23			
11.717	0.0117	7.24			
11.733	0.0116	7.24			
11.750	0.0115	7.23			
11.767	0.0116	7.23			
11.783	0.0116	7.24			
11.800	0.0116	7.23			
11.817	0.0117	7.21			
11.833	0.0117	7.23			
11.850	0.0116	7.23			
11.867	0.0115	7.23			
11.883	0.0114	7.23			
11.900	0.0114	7.23			
11.917	0.0114	7.23			
11.933	0.0114	7.23			
11.950	0.0111	7.23			
11.967	0.0111	7.23			
11.983	0.0112	7.24			
12.000	0.0113	7.23			
12.017	0.0111	7.21			
12.033	0.0111	7.18			
12.050	0.0111	7.20			
12.067	0.0112	7.21			
12.083	0.0112	7.21			
12.100	0.0110	7.23			
12.117	0.0106	7.20			
12.133	0.0103	7.21			
12.150	0.0105	7.21			
12.167	0.0104	7.21			
12.183	0.0103	7.21			
12.200	0.0102	7.23			
12.217	0.0101	7.21			
12.233	0.0100	7.21			
12.250	0.0096	7.20			
12.267	0.0094	7.21			
12.283	0.0093	7.21			
12.300	0.0091	7.23			
12.317	0.0089	7.23			
12.333	0.0088	7.21			
12.350	0.0086	7.23			
12.367	0.0084	7.23			
12.383	0.0083	7.24			
12.400	0.0083	7.24			
12.417	0.0084	7.23			
12.433	0.0084	7.24			
12.450	0.0084	7.24			
12.467	0.0085	7.24			
12.483	0.0086	7.24			
12.500	0.0086	7.24			
12.517	0.0086	7.24			
12.533	0.0084	7.26			
12.550	0.0083	7.26			
12.567	0.0084	7.26			
12.583	0.0084	7.26			
12.600	0.0084	7.26			
12.617	0.0083	7.26			
12.633	0.0084	7.28			
12.650	0.0083	7.28			
12.667	0.0082	7.26			
12.683	0.0081	7.28			
12.700	0.0081	7.28			
12.717	0.0081	7.28			
12.733	0.0079	7.26			
12.750	0.0078	7.28			
12.767	0.0078	7.28			
12.783	0.0078	7.26			
12.800	0.0077	7.26			
12.817	0.0076	7.26			
12.833	0.0076	7.26			
12.850	0.0075	7.26			
12.867	0.0074	7.25			
12.883	0.0074	7.25			
12.900	0.0074	7.25			
12.917	0.0073	7.25			
12.933	0.0072	7.25			
12.950	0.0070	7.25			
12.967	0.0070	7.25			
12.983	0.0070	7.25			
13.000	0.0069	7.25			
13.017	0.0068	7.25			
13.033	0.0067	7.25			
13.050	0.0067	7.25			
13.067	0.0067	7.25			
13.083	0.0067	7.25			
13.100	0.0066	7.25			
13.117	0.0064	7.25			
13.133	0.0064	7.25			
13.150	0.0064	7.25			
13.167	0.0063	7.25			
13.183	0.0061	7.25			
13.200	0.0061	7.23			
13.217	0.0061	7.23			
13.233	0.0061	7.23			
13.250	0.0060	7.23			
13.267	0.0060	7.23			
13.283	0.0059	7.23			
13.300	0.0059	7.23			
13.317	0.0057	7.22			
13.333	0.0058	7.23			
13.350	0.0058	7.23			
13.367	0.0058	7.23			
13.383	0.0057	7.22			
13.400	0.0057	7.23			
13.417	0.0057	7.22			
13.433	0.0056	7.22			
13.450	0.0055	7.20			
13.467	0.0054	7.20			
13.483	0.0054	7.20			
13.500	0.0054	7.20			
13.517	0.0054	7.20			
13.533	0.0053	7.20			
13.550	0.0053	7.20			
13.567	0.0053	7.20			
13.583	0.0052	7.22			
13.600	0.0052	7.20			
13.617	0.0051	7.19			
13.633	0.0052	7.20			
13.650	0.0052	7.20			
13.667	0.0051	7.20			
13.683	0.0050	7.20			
13.700	0.0050	7.19			
13.717	0.0050	7.19			
13.733	0.0050	7.19			
13.750	0.0050	7.19			
13.767	0.0049	7.20			
13.783	0.0048	7.20			
13.800	0.0049	7.20			
13.817	0.0049	7.20			
13.833	0.0049	7.20			
13.850	0.0049	7.20			
13.867	0.0048	7.20			
13.883	0.0046	7.20			
13.900	0.0046	7.20			
13.917	0.0047	7.19			
13.933	0.0047	7.19			
13.950	0.0047	7.19			
13.967	0.0045	7.19			
13.983	0.0045	7.19			
14.000	0.0046	7.19			
14.017	0.0046	7.20			
14.033	0.0045	7.19			
14.050	0.0045	7.19			
14.067	0.0045	7.19			
14.083	0.0045	7.19			
14.100	0.0045	7.19			
14.117	0.0045	7.19			
14.133	0.0044	7.19			
14.150	0.0044	7.19			
14.167	0.0043	7.17			
14.183	0.0043	7.17			
14.200	0.0042	7.17			
14.217	0.0042	7.17			
14.233	0.0042	7.19			
14.250	0.0042	7.19			
14.267	0.0041	7.19			
14.283	0.0041	7.17			
14.300	0.0040	7.17			
14.317	0.0040	7.19			
14.333	0.0040	7.17			
14.350	0.0039	7.17			
14.367	0.0040	7.17			
14.383	0.0040	7.17			
14.400	0.0040	7.17			
14.417	0.0039	7.17			
14.433	0.0039	7.19			
14.450	0.0039	7.17			
14.467	0.0039	7.17			
14.483	0.0039	7.17			
14.500	0.0039	7.17			
14.517	0.0038	7.17			
14.533	0.0038	7.17			
14.550	0.0038	7.17			
14.567	0.0038	7.17			
14.583	0.0037	7.17			
14.600	0.0037	7.17			
14.617	0.0037	7.17			
14.633	0.0037	7.17			
14.650	0.0037	7.17			
14.667	0.0036	7.16			
14.683	0.0036	7.16			
14.700	0.0035	7.16			
14.717	0.0036	7.16			
14.733	0.0036	7.16			
14.750	0.0035	7.16			
14.767	0.0035	7.16			
14.783	0.0035	7.16			
14.800	0.0036	7.16			
14.817	0.0036	7.14			
14.833	0.0036	7.14			
14.850	0.0035	7.16			
14.867	0.0035	7.14			
14.883	0.0035	7.16			
14.900	0.0035	7.14			
14.917	0.0035	7.14			
14.933	0.0034	7.14			
14.950	0.0033	7.14			
14.967	0.0034	7.14			
14.983	0.0035	7.16			
15.000	0.0034	7.16			
15.017	0.0033	7.14			
15.033	0.0032	7.14			
15.050	0.0033	7.14			
15.067	0.0033	7.14			
15.083	0.0033	7.14			
15.100	0.0033	7.14			
15.117	0.0034	7.14			
15.133	0.0034	7.14			
15.150	0.0033	7.14			
15.167	0.0032	7.16			
15.183	0.0032	7.14			
15.200	0.0032	7.13			
15.217	0.0032	7.13			
15.233	0.0033	7.14			
15.250	0.0033	7.14			
15.267	0.0032	7.13			
15.283	0.0032	7.13			
15.300	0.0032	7.11			
15.317	0.0031	7.11			
15.333	0.0031	7.13			
15.350	0.0031	7.13			
15.367	0.0031	7.13			
15.383	0.0032	7.13			
15.400	0.0032	7.13			
15.417	0.0031	7.11			
15.433	0.0030	7.11			
15.450	0.0030	7.11			
15.467	0.0031	7.13			
15.483	0.0031	7.13			
15.500	0.0030	7.11			
15.517	0.0030	7.11			
15.533	0.0031	7.10			
15.550	0.0032	7.11			
15.567	0.0031	7.11			
15.583	0.0031	7.11			
15.600	0.0031	7.11			
15.617	0.0031	7.11			
15.633	0.0030	7.11			
15.650	0.0029	7.10			
15.667	0.0029	7.11			
15.683	0.0029	7.11			
15.700	0.0030	7.11			
15.717	0.0030	7.10			
15.733	0.0030	7.10			
15.750	0.0029	7.10			
15.767	0.0029	7.10			
15.783	0.0029	7.10			
15.800	0.0029	7.10			
15.817	0.0031	7.10			
15.833	0.0031	7.10			
15.850	0.0030	7.10			
15.867	0.0029	7.10			
15.883	0.0028	7.08			
15.900	0.0028	7.08			
15.917	0.0029	7.10			
15.933	0.0028	7.10			
15.950	0.0028	7.10			
15.967	0.0029	7.08			
15.983	0.0029	7.08			
16.000	0.0029	7.08			
16.017	0.0028	7.08			
16.033	0.0028	7.07			
16.050	0.0028	7.07			
16.067	0.0028	7.08			
16.083	0.0028	7.08			
16.100	0.0027	7.07			
16.117	0.0026	7.08			
16.133	0.0027	7.08			
16.150	0.0026	7.07			
16.167	0.0027	7.07			
16.183	0.0028	7.07			
16.200	0.0029	7.07			
16.217	0.0028	7.07			
16.233	0.0027	7.08			
16.250	0.0027	7.07			
16.267	0.0027	7.07			
16.283	0.0027	7.05			
16.300	0.0026	7.05			
16.317	0.0027	7.05			
16.333	0.0028	7.07			
16.350	0.0028	7.07			
16.367	0.0027	7.05			
16.383	0.0026	7.05			
16.400	0.0027	7.05			
16.417	0.0027	7.05			
16.433	0.0027	7.05			
16.450	0.0027	7.03			
16.467	0.0027	7.05			
16.483	0.0027	7.03			
16.500	0.0027	7.03			
16.517	0.0026	7.03			
16.533	0.0026	7.05			
16.550	0.0027	7.05			
16.567	0.0027	7.03			
16.583	0.0027	7.02			
16.600	0.0027	7.02			
16.617	0.0027	7.03			
16.633	0.0027	7.03			
16.650	0.0027	7.03			
16.667	0.0027	7.03			
16.683	0.0028	7.03			
16.700	0.0027	7.03			
16.717	0.0026	7.03			
16.733	0.0025	7.03			
16.750	0.0026	7.02			
16.767	0.0027	7.02			
16.783	0.0027	7.02			
16.800	0.0026	7.02			
16.817	0.0027	7.02			
16.833	0.0027	7.02			
16.850	0.0026	7.02			
16.867	0.0026	7.02			
16.883	0.0026	7.02			
16.900	0.0026	7.02			
16.917	0.0026	7.00			
16.933	0.0026	7.00			
16.950	0.0025	7.00			
16.967	0.0025	7.02			
16.983	0.0024	7.00			
17.000	0.0025	7.00			
17.017	0.0026	7.02			
17.033	0.0026	6.97			
17.050	0.0025	6.94			
17.067	0.0026	6.95			
17.083	0.0026	6.95			
17.100	0.0025	6.95			
17.117	0.0024	6.95			
17.133	0.0025	6.95			
17.150	0.0025	6.95			
17.167	0.0026	6.95			
17.183	0.0026	6.95			
17.200	0.0027	6.95			
17.217	0.0027	6.95			
17.233	0.0026	6.97			
17.250	0.0026	6.95			
17.267	0.0027	6.95			
17.283	0.0027	6.97			
17.300	0.0026	6.97			
17.317	0.0027	6.97			
17.333	0.0027	6.95			
17.350	0.0026	6.97			
17.367	0.0025	6.97			
17.383	0.0025	6.97			
17.400	0.0026	6.98			
17.417	0.0026	6.98			
17.433	0.0026	6.97			
17.450	0.0025	6.97			
17.467	0.0025	6.97			
17.483	0.0025	6.98			
17.500	0.0026	6.98			
17.517	0.0026	6.98			
17.533	0.0026	6.97			
17.550	0.0026	6.97			
17.567	0.0025	6.97			
17.583	0.0024	6.97			
17.600	0.0026	6.98			
17.617	0.0027	6.99			
17.633	0.0026	6.96			
17.650	0.0025	6.97			
17.667	0.0025	6.97			
17.683	0.0026	6.97			
17.700	0.0026	6.97			
17.717	0.0026	6.99			
17.733	0.0026	6.99			
17.750	0.0026	6.99			
17.767	0.0026	7.00			
17.783	0.0026	7.00			
17.800	0.0025	7.00			
17.817	0.0025	7.02			
17.833	0.0025	7.00			
17.850	0.0026	7.00			
17.867	0.0025	7.00			
17.883	0.0024	7.00			
17.900	0.0023	7.00			
17.917	0.0024	7.00			
17.933	0.0025	7.00			
17.950	0.0025	7.00			
17.967	0.0025	7.02			
17.983	0.0025	7.02			
18.000	0.0025	7.02			
18.017	0.0024	7.02			
18.033	0.0024	7.00			
18.050	0.0025	7.00			
18.067	0.0024	7.02			
18.083	0.0023	7.00			
18.100	0.0024	7.00			
18.117	0.0024	7.00			
18.133	0.0025	7.00			
18.150	0.0024	7.00			
18.167	0.0023	7.00			
18.183	0.0023	7.00			
18.200	0.0024	7.00			
18.217	0.0024	7.00			
18.233	0.0024	7.00			
18.250	0.0023	7.00			
18.267	0.0023	7.02			
18.283	0.0023	7.02			
18.300	0.0023	7.02			
18.317	0.0023	7.02			
18.333	0.0023	7.02			
18.350	0.0023	7.02			
18.367	0.0023	7.02			
18.383	0.0023	7.00			
18.400	0.0023	7.02			
18.417	0.0023	7.00			
18.433	0.0023	7.00			
18.450	0.0024	7.00			
18.467	0.0024	7.00			
18.483	0.0024	6.99			
18.500	0.0024	7.00			
18.517	0.0023	7.00			
18.533	0.0023	7.00			
18.550	0.0024	7.00			
18.567	0.0024	7.00			
18.583	0.0024	7.02			
18.600	0.0024	7.02			
18.617	0.0023	7.00			
18.633	0.0023	7.00			
18.650	0.0024	7.00			
18.667	0.0023	7.00			
18.683	0.0022	7.00			
18.700	0.0022	7.00			
18.717	0.0024	7.00			
18.733	0.0024	7.00			
18.750	0.0024	7.00			
18.767	0.0023	7.00			
18.783	0.0023	7.00			
18.800	0.0024	7.00			
18.817	0.0023	7.00			
18.833	0.0023	6.99			
18.850	0.0023	6.98			
18.867	0.0024	6.98			
18.883	0.0023	6.98			
18.900	0.0023	6.98			
18.917	0.0023	6.99			
18.933	0.0023	6.99			
18.950	0.0022	6.98			
18.967	0.0022	6.98			
18.983	0.0021	6.98			
19.000	0.0021	6.98			
19.017	0.0022	6.98			
19.033	0.0021	6.99			
19.050	0.0021	6.98			
19.067	0.0022	6.98			
19.083	0.0022	6.98			
19.100	0.0023	6.98			
19.117	0.0023	6.98			
19.133	0.0023	6.98			
19.150	0.0022	6.98			
19.167	0.0022	6.98			
19.183	0.0023	6.98			
19.200	0.0022	6.98			
19.217	0.0022	6.98			
19.233	0.0022	6.98			
19.250	0.0022	6.98			
19.267	0.0022	6.98			
19.283	0.0021	6.98			
19.300	0.0022	6.96			
19.317	0.0023	6.96			
19.333	0.0023	6.96			
19.350	0.0023	6.96			
19.367	0.0023	6.96			
19.383	0.0022	6.96			
19.400	0.0023	6.96			
19.417	0.0024	6.96			
19.433	0.0023	6.96			
19.450	0.0023	6.93			
19.467	0.0021	6.93			
19.483	0.0021	6.95			
19.500	0.0022	6.95			
19.517	0.0023	6.95			
19.533	0.0022	6.95			
19.550	0.0023	6.93			
19.567	0.0023	6.93			
19.583	0.0022	6.93			
19.600	0.0023	6.93			
19.617	0.0023	6.95			
19.633	0.0023	6.93			
19.650	0.0023	6.93			
19.667	0.0022	6.95			
19.683	0.0022	6.95			
19.700	0.0021	6.95			
19.717	0.0022	6.93			
19.733	0.0023	6.93			
19.750	0.0023	6.93			
19.767	0.0023	6.93			
19.783	0.0022	6.93			
19.800	0.0023	6.95			
19.817	0.0023	6.95			
19.833	0.0023	6.93			
19.850	0.0022	6.93			
19.867	0.0021	6.93			
19.883	0.0021	6.92			
19.900	0.0021	6.93			
19.917	0.0021	6.93			
19.933	0.0021	6.93			
19.950	0.0021	6.93			
19.967	0.0022	6.92			
19.983	0.0023	6.92			
20.000	0.0023	6.93			
20.017	0.0021	6.92			
20.033	0.0021	6.93			
20.050	0.0021	6.93			
20.067	0.0022	6.93			
20.083	0.0022	6.93			
20.100	0.0023	6.93			
20.117	0.0022	6.93			
20.133	0.0022	6.93			
20.150	0.0023	6.93			
20.167	0.0023	6.93			
20.183	0.0023	6.92			
20.200	0.0022	6.92			
20.217	0.0022	6.93			
20.233	0.0022	6.93			
20.250	0.0021	6.92			
20.267	0.0021	6.92			
20.283	0.0022	6.92			
20.300	0.0021	6.92			
20.317	0.0021	6.93			
20.333	0.0021	6.93			
20.350	0.0020	6.92			
20.367	0.0021	6.92			
20.383	0.0022	6.92			
20.400	0.0022	6.92			
20.417	0.0022	6.92			
20.433	0.0022	6.92			
20.450	0.0022	6.92			
20.467	0.0022	6.92			
20.483	0.0022	6.92			
20.500	0.0021	6.92			
20.517	0.0021	6.92			
20.533	0.0021	6.92			
20.550	0.0022	6.92			
20.567	0.0023	6.92			
20.583	0.0022	6.92			
20.600	0.0023	6.92			
20.617	0.0022	6.92			
20.633	0.0022	6.92			
20.650	0.0021	6.93			
20.667	0.0021	6.92			
20.683	0.0021	6.92			
20.700	0.0021	6.92			
20.717	0.0021	6.92			
20.733	0.0022	6.92			
20.750	0.0022	6.92			
20.767	0.0021	6.92			
20.783	0.0020	6.93			
20.800	0.0021	6.93			
20.817	0.0022	6.92			
20.833	0.0021	6.92			
20.850	0.0021	6.93			
20.867	0.0021	6.92			
20.883	0.0020	6.92			
20.900	0.0022	6.92			
20.917	0.0023	6.93			
20.933	0.0022	6.93			
20.950	0.0021	6.92			
20.967	0.0021	6.92			
20.983	0.0020	6.93			
21.000	0.0019	6.92			
21.017	0.0021	6.93			
21.033	0.0021	6.93			
21.050	0.0020	6.93			
21.067	0.0020	6.92			
21.083	0.0020	6.92			
21.100	0.0021	6.92			
21.117	0.0021	6.92			
21.133	0.0021	6.92			
21.150	0.0021	6.92			
21.167	0.0021	6.90			
21.183	0.0020	6.93			
21.200	0.0021	6.92			
21.217	0.0020	6.90			
21.233	0.0019	6.90			
21.250	0.0020	6.92			
21.267	0.0021	6.90			
21.283	0.0021	6.90			
21.300	0.0021	6.90			
21.317	0.0020	6.90			
21.333	0.0020	6.88			
21.350	0.0020	6.90			
21.367	0.0020	6.90			
21.383	0.0021	6.90			
21.400	0.0020	6.90			
21.417	0.0020	6.90			
21.433	0.0020	6.90			
21.450	0.0020	6.91			
21.467	0.0020	6.90			
21.483	0.0021	6.90			
21.500	0.0021	6.90			
21.517	0.0021	6.90			
21.533	0.0020	6.90			
21.550	0.0019	6.90			
21.567	0.0019	6.90			
21.583	0.0020	6.90			
21.600	0.0021	6.90			
21.617	0.0021	6.90			
21.633	0.0020	6.90			
21.650	0.0019	6.90			
21.667	0.0020	6.90			
21.683	0.0020	6.90			
21.700	0.0020	6.90			
21.717	0.0020	6.90			
21.733	0.0020	6.88			
21.750	0.0020	6.90			
21.767	0.0021	6.88			
21.783	0.0020	6.90			
21.800	0.0020	6.88			
21.817	0.0020	6.88			
21.833	0.0020	6.88			
21.850	0.0020	6.88			
21.867	0.0020	6.90			
21.883	0.0019	6.90			
21.900	0.0019	6.90			
21.917	0.0019	6.88			
21.933	0.0019	6.88			
21.950	0.0020	6.88			
21.967	0.0021	6.88			
21.983	0.0021	6.88			
22.000	0.0020	6.88			
22.017	0.0019	6.87			
22.033	0.0019	6.87			
22.050	0.0020	6.88			
22.067	0.0020	6.88			
22.083	0.0020	6.88			
22.100	0.0020	6.88			
22.117	0.0020	6.90			
22.133	0.0021	6.88			
22.150	0.0020	6.88			
22.167	0.0019	6.90			
22.183	0.0019	6.88			
22.200	0.0020	6.88			
22.217	0.0020	6.88			
22.233	0.0020	6.90			
22.250	0.0020	6.90			
22.267	0.0019	6.90			
22.283	0.0019	6.88			
22.300	0.0019	6.90			
22.317	0.0019	6.90			
22.333	0.0019	6.90			
22.350	0.0020	6.91			
22.367	0.0020	6.91			
22.383	0.0020	6.90			
22.400	0.0020	6.91			
22.417	0.0020	6.91			
22.433	0.0020	6.93			
22.450	0.0021	6.93			
22.467	0.0021	6.93			
22.483	0.0021	6.93			
22.500	0.0021	6.91			
22.517	0.0021	6.93			
22.533	0.0021	6.93			
22.550	0.0021	6.93			
22.567	0.0021	6.93			
22.583	0.0021	6.95			
22.600	0.0020	6.95			
22.617	0.0020	6.95			
22.633	0.0020	6.95			
22.650	0.0019	6.96			
22.667	0.0019	6.96			
22.683	0.0019	6.98			
22.700	0.0020	6.98			
22.717	0.0020	6.98			
22.733	0.0020	6.99			
22.750	0.0020	7.01			
22.767	0.0020	7.01			
22.783	0.0020	6.99			
22.800	0.0021	7.01			
22.817	0.0021	7.02			
22.833	0.0021	7.02			
22.850	0.0020	7.02			
22.867	0.0019	7.04			
22.883	0.0019	7.05			
22.900	0.0020	7.05			
22.917	0.0021	7.05			
22.933	0.0021	7.07			
22.950	0.0021	7.08			
22.967	0.0021	7.10			
22.983	0.0020	7.10			
23.000	0.0020	7.13			
23.017	0.0020	7.13			
23.033	0.0020	7.14			
23.050	0.0021	7.16			
23.067	0.0020	7.17			
23.083	0.0020	7.19			
23.100	0.0020	7.19			
23.117	0.0020	7.19			
23.133	0.0020	7.21			
23.150	0.0021	7.24			
23.167	0.0020	7.25			
23.183	0.0020	7.27			
23.200	0.0021	7.27			
23.217	0.0021	7.28			
23.233	0.0020	7.30			
23.250	0.0021	7.33			
23.267	0.0021	7.34			
23.283	0.0021	7.36			
23.300	0.0021	7.37			
23.317	0.0021	7.39			
23.333	0.0022	7.40			
23.350	0.0022	7.44			
23.367	0.0021	7.45			
23.383	0.0020	7.47			
23.400	0.0020	7.50			
23.417	0.0020	7.50			
23.433	0.0021	7.53			
23.450	0.0022	7.56			
23.467	0.0021	7.59			
23.483	0.0021	7.60			
23.500	0.0022	7.62			
23.517	0.0022	7.65			
23.533	0.0022	7.66			
23.550	0.0022	7.68			
23.567	0.0022	7.73			
23.583	0.0022	7.74			
23.600	0.0021	7.77			
23.617	0.0021	7.80			
23.633	0.0021	7.83			
23.650	0.0021	7.85			
23.667	0.0021	7.88			
23.683	0.0022	7.89			
23.700	0.0022	7.92			
23.717	0.0022	7.99			
23.733	0.0022	8.00			
23.750	0.0021	8.02			
23.767	0.0021	8.05			
23.783	0.0022	8.06			
23.800	0.0021	8.11			
23.817	0.0022	8.15			
23.833	0.0022	8.18			
23.850	0.0023	8.22			
23.867	0.0024	8.23			
23.883	0.0024	8.26			
23.900	0.0024	8.31			
23.917	0.0024	8.35			
23.933	0.0024	8.38			
23.950	0.0023	8.43			
23.967	0.0024	8.44			
23.983	0.0024	8.49			
24.000	0.0024	8.54			
24.017	0.0024	8.58			
24.033	0.0024	8.61			
24.050	0.0024	8.66			
24.067	0.0025	8.70			
24.083	0.0024	8.75			
24.100	0.0023	8.81			
24.117	0.0023	8.87			
24.133	0.0023	8.90			
24.150	0.0024	8.93			
24.167	0.0024	8.98			
24.183	0.0024	9.04			
24.200	0.0024	9.09			
24.217	0.0025	9.16			
24.233	0.0024	9.22			
24.250	0.0024	9.27			
24.267	0.0024	9.33			
24.283	0.0024	9.36			
24.300	0.0024	9.41			
24.317	0.0025	9.45			
24.333	0.0026	9.49			
24.350	0.0026	9.55			
24.367	0.0026	9.59			
24.383	0.0027	9.64			
24.400	0.0026	9.68			
24.417	0.0027	9.73			
24.433	0.0025	9.76			
24.450	0.0025	9.82			
24.467	0.0025	9.88			
24.483	0.0025	9.91			
24.500	0.0025	9.96			
24.517	0.0025	10.04			
24.533	0.0025	10.08			
24.550	0.0025	10.13			
24.567	0.0025	10.17			
24.583	0.0026	10.23			
24.600	0.0025	10.30			
24.617	0.0026	10.34			
24.633	0.0026	10.39			
24.650	0.0026	10.43			
24.667	0.0026	10.49			
24.683	0.0026	10.54			
24.700	0.0026	10.62			
24.717	0.0027	10.66			
24.733	0.0027	10.71			
24.750	0.0027	10.77			
24.767	0.0027	10.82			
24.783	0.0028	10.89			
24.800	0.0028	10.92			
24.817	0.0028	11.00			
24.833	0.0028	11.05			
24.850	0.0028	11.11			
24.867	0.0029	11.17			
24.883	0.0028	11.23			
24.900	0.0028	11.27			
24.917	0.0028	11.34			
24.933	0.0028	11.40			
24.950	0.0028	11.44			
24.967	0.0029	11.50			
24.983	0.0028	11.58			
25.000	0.0028	11.63			
25.017	0.0028	11.70			
25.033	0.0028	11.76			
25.050	0.0028	11.81			
25.067	0.0027	11.87			
25.083	0.0027	11.93			
25.100	0.0028	11.96			
25.117	0.0029	12.04			
25.133	0.0029	12.12			
25.150	0.0029	12.19			
25.167	0.0029	12.24			
25.183	0.0029	12.28			
25.200	0.0030	12.35			
25.217	0.0030	12.42			
25.233	0.0030	12.48			
25.250	0.0030	12.56			
25.267	0.0030	12.64			
25.283	0.0029	12.70			
25.300	0.0029	12.77			
25.317	0.0029	12.87			
25.333	0.0030	12.94			
25.350	0.0030	13.02			
25.367	0.0031	13.10			
25.383	0.0031	13.14			
25.400	0.0032	13.20			
25.417	0.0031	13.28			
25.433	0.0031	13.32			
25.450	0.0031	13.40			
25.467	0.0032	13.45			
25.483	0.0031	13.51			
25.500	0.0031	13.57			
25.517	0.0032	13.63			
25.533	0.0032	13.69			
25.550	0.0031	13.75			
25.567	0.0031	13.83			
25.583	0.0032	13.89			
25.600	0.0032	13.95			
25.617	0.0032	14.03			
25.633	0.0032	14.09			
25.650	0.0032	14.15			
25.667	0.0032	14.23			
25.683	0.0032	14.30			
25.700	0.0033	14.37			
25.717	0.0033	14.43			
25.733	0.0033	14.49			
25.750	0.0033	14.53			
25.767	0.0033	14.63			
25.783	0.0032	14.67			
25.800	0.0032	14.73			
25.817	0.0033	14.79			
25.833	0.0033	14.85			
25.850	0.0033	14.93			
25.867	0.0033	14.99			
25.883	0.0034	15.05			
25.900	0.0035	15.11			
25.917	0.0034	15.18			
25.933	0.0034	15.22			
25.950	0.0034	15.28			
25.967	0.0034	15.36			
25.983	0.0034	15.42			
26.000	0.0034	15.50			
26.017	0.0035	15.57			
26.033	0.0035	15.62			
26.050	0.0035	15.68			
26.067	0.0035	15.74			
26.083	0.0035	15.80			
26.100	0.0035	15.88			
26.117	0.0035	15.94			
26.133	0.0035	16.00			
26.150	0.0036	16.06			
26.167	0.0037	16.12			
26.183	0.0036	16.17			
26.200	0.0035	16.26			
26.217	0.0036	16.32			
26.233	0.0036	16.37			
26.250	0.0036	16.45			
26.267	0.0036	16.51			
26.283	0.0037	16.58			
26.300	0.0037	16.68			
26.317	0.0037	16.74			
26.333	0.0037	16.83			
26.350	0.0038	16.90			
26.367	0.0037	16.97			
26.383	0.0037	17.04			
26.400	0.0037	17.12			
26.417	0.0037	17.18			
26.433	0.0037	17.23			
26.450	0.0038	17.29			
26.467	0.0039	17.33			
26.483	0.0039	17.41			
26.500	0.0040	17.47			
26.517	0.0039	17.53			
26.533	0.0038	17.59			
26.550	0.0037	17.67			
26.567	0.0038	17.75			
26.583	0.0039	17.81			
26.600	0.0039	17.85			
26.617	0.0039	17.91			
26.633	0.0039	17.96			
26.650	0.0040	18.04			
26.667	0.0040	18.11			
26.683	0.0041	18.16			
26.700	0.0040	18.21			
26.717	0.0039	18.30			
26.733	0.0039	18.36			
26.750	0.0040	18.40			
26.767	0.0040	18.50			
26.783	0.0041	18.56			
26.800	0.0040	18.62			
26.817	0.0040	18.68			
26.833	0.0041	18.73			
26.850	0.0041	18.79			
26.867	0.0042	18.86			
26.883	0.0042	18.91			
26.900	0.0042	18.99			
26.917	0.0042	19.05			
26.933	0.0042	19.09			
26.950	0.0042	19.15			
26.967	0.0042	19.23			
26.983	0.0042	19.29			
27.000	0.0042	19.35			
27.017	0.0043	19.41			
27.033	0.0043	19.47			
27.050	0.0043	19.54			
27.067	0.0043	19.61			
27.083	0.0043	19.67			
27.100	0.0044	19.74			
27.117	0.0045	19.80			
27.133	0.0045	19.84			
27.150	0.0045	19.92			
27.167	0.0044	19.98			
27.183	0.0044	20.04			
27.200	0.0044	20.12			
27.217	0.0045	20.18			
27.233	0.0045	20.24			
27.250	0.0046	20.29			
27.267	0.0047	20.36			
27.283	0.0046	20.45			
27.300	0.0046	20.53			
27.317	0.0046	20.62			
27.333	0.0046	20.70			
27.350	0.0047	20.76			
27.367	0.0047	20.85			
27.383	0.0047	20.91			
27.400	0.0047	20.97			
27.417	0.0047	21.02			
27.433	0.0047	21.07			
27.450	0.0047	21.13			
27.467	0.0048	21.17			
27.483	0.0048	21.23			
27.500	0.0048	21.30			
27.517	0.0047	21.36			
27.533	0.0048	21.42			
27.550	0.0049	21.46			
27.567	0.0049	21.54			
27.583	0.0049	21.60			
27.600	0.0049	21.66			
27.617	0.0049	21.74			
27.633	0.0049	21.78			
27.650	0.0049	21.85			
27.667	0.0050	21.91			
27.683	0.0050	21.97			
27.700	0.0049	22.01			
27.717	0.0049	22.09			
27.733	0.0050	22.15			
27.750	0.0050	22.21			
27.767	0.0050	22.27			
27.783	0.0050	22.34			
27.800	0.0050	22.40			
27.817	0.0051	22.46			
27.833	0.0051	22.52			
27.850	0.0051	22.58			
27.867	0.0051	22.64			
27.883	0.0051	22.69			
27.900	0.0051	22.78			
27.917	0.0051	22.83			
27.933	0.0051	22.89			
27.950	0.0051	22.96			
27.967	0.0051	23.01			
27.983	0.0051	23.07			
28.000	0.0052	23.15			
28.017	0.0052	23.21			
28.033	0.0053	23.25			
28.050	0.0052	23.31			
28.067	0.0053	23.36			
28.083	0.0053	23.42			
28.100	0.0052	23.50			
28.117	0.0053	23.56			
28.133	0.0055	23.61			
28.150	0.0056	23.67			
28.167	0.0056	23.73			
28.183	0.0056	23.79			
28.200	0.0055	23.83			
28.217	0.0055	23.91			
28.233	0.0055	23.97			
28.250	0.0056	24.02			
28.267	0.0055	24.10			
28.283	0.0055	24.16			
28.300	0.0056	24.20			
28.317	0.0057	24.28			
28.333	0.0057	24.32			
28.350	0.0057	24.42			
28.367	0.0055	24.49			
28.383	0.0055	24.57			
28.400	0.0054	24.65			
28.417	0.0055	24.72			
28.433	0.0056	24.77			
28.450	0.0055	24.84			
28.467	0.0055	24.91			
28.483	0.0056	24.95			
28.500	0.0056	25.03			
28.517	0.0054	25.09			
28.533	0.0054	25.14			
28.550	0.0055	25.20			
28.567	0.0055	25.26			
28.583	0.0056	25.30			
28.600	0.0055	25.38			
28.617	0.0055	25.44			
28.633	0.0056	25.49			
28.650	0.0057	25.55			
28.667	0.0058	25.61			
28.683	0.0057	25.67			
28.700	0.0057	25.73			
28.717	0.0056	25.79			
28.733	0.0055	25.84			
28.750	0.0056	25.90			
28.767	0.0057	25.95			
28.783	0.0056	26.01			
28.800	0.0057	26.05			
28.817	0.0057	26.11			
28.833	0.0057	26.18			
28.850	0.0057	26.24			
28.867	0.0057	26.28			
28.883	0.0057	26.34			
28.900	0.0057	26.41			
28.917	0.0057	26.47			
28.933	0.0057	26.53			
28.950	0.0058	26.57			
28.967	0.0058	26.63			
28.983	0.0059	26.70			
29.000	0.0058	26.74			
29.017	0.0058	26.82			
29.033	0.0058	26.86			
29.050	0.0059	26.91			
29.067	0.0059	26.99			
29.083	0.0058	27.03			
29.100	0.0058	27.09			
29.117	0.0058	27.15			
29.133	0.0059	27.20			
29.150	0.0060	27.26			
29.167	0.0060	27.32			
29.183	0.0059	27.37			
29.200	0.0059	27.41			
29.217	0.0059	27.48			
29.233	0.0059	27.52			
29.250	0.0059	27.60			
29.267	0.0059	27.67			
29.283	0.0059	27.71			
29.300	0.0059	27.77			
29.317	0.0060	27.83			
29.333	0.0060	27.87			
29.350	0.0060	27.95			
29.367	0.0060	28.01			
29.383	0.0060	28.04			
29.400	0.0060	28.10			
29.417	0.0061	28.16			
29.433	0.0060	28.23			
29.450	0.0060	28.29			
29.467	0.0060	28.36			
29.483	0.0061	28.42			
29.500	0.0062	28.47			
29.517	0.0062	28.55			
29.533	0.0061	28.62			
29.550	0.0062	28.68			
29.567	0.0062	28.73			
29.583	0.0062	28.79			
29.600	0.0062	28.84			
29.617	0.0063	28.87			
29.633	0.0062	28.93			
29.650	0.0062	28.98			
29.667	0.0063	29.04			
29.683	0.0063	29.10			
29.700	0.0063	29.14			
29.717	0.0064	29.19			
29.733	0.0065	29.25			
29.750	0.0065	29.31			
29.767	0.0065	29.36			
29.783	0.0065	29.42			
29.800	0.0065	29.45			
29.817	0.0065	29.51			
29.833	0.0064	29.57			
29.850	0.0064	29.62			
29.867	0.0065	29.66			
29.883	0.0065	29.71			
29.900	0.0065	29.77			
29.917	0.0065	29.82			
29.933	0.0065	29.88			
29.950	0.0065	29.92			
29.967	0.0066	30.00			
29.983	0.0067	30.05			
30.000	0.0067	30.09			
30.017	0.0067	30.17			
30.033	0.0067	30.21			
30.050	0.0067	30.26			
30.067	0.0067	30.32			
30.083	0.0067	30.37			
30.100	0.0067	30.41			
30.117	0.0068	30.47			
30.133	0.0068	30.51			
30.150	0.0068	30.58			
30.167	0.0068	30.63			
30.183	0.0068	30.67			
30.200	0.0068	30.73			
30.217	0.0069	30.78			
30.233	0.0069	30.92			
30.250	0.0069	30.90			
30.267	0.0069	30.96			
30.283	0.0069	31.03			
30.300	0.0069	31.07			
30.317	0.0070	31.12			
30.333	0.0070	31.16			
30.350	0.0071	31.31			
30.367	0.0070	31.34			
30.383	0.0070	31.41			
30.400	0.0070	31.38			
30.417	0.0070	31.42			
30.433	0.0071	31.48			
30.450	0.0071	31.55			
30.467	0.0071	31.69			
30.483	0.0071	31.65			
30.500	0.0071	31.70			
30.517	0.0072	31.84			
30.533	0.0072	31.90			
30.550	0.0072	31.95			
30.567	0.0073	32.01			
30.583	0.0073	32.06			
30.600	0.0073	32.10			
30.617	0.0073	32.08			
30.633	0.0074	32.23			
30.650	0.0073	32.19			
30.667	0.0073	32.26			
30.683	0.0073	32.38			
30.700	0.0073	32.36			
30.717	0.0073	32.52			
30.733	0.0074	32.51			
30.750	0.0074	32.66			
30.767	0.0074	32.73			
30.783	0.0074	32.78			
30.800	0.0074	32.82			
30.817	0.0074	32.89			
30.833	0.0075	32.93			
30.850	0.0075	32.98			
30.867	0.0075	33.05			
30.883	0.0075	33.10			
30.900	0.0075	33.16			
30.917	0.0075	33.12			
30.933	0.0076	33.24			
30.950	0.0078	33.32			
30.967	0.0078	33.38			
30.983	0.0077	33.34			
31.000	0.0076	33.50			
31.017	0.0076	33.44			
31.033	0.0077	33.50			
31.050	0.0078	33.58			
31.067	0.0078	33.63			
31.083	0.0077	33.76			
31.100	0.0077	33.72			
31.117	0.0078	33.76			
31.133	0.0078	33.81			
31.150	0.0079	33.87			
31.167	0.0078	33.92			
31.183	0.0079	33.98			
31.200	0.0078	34.04			
31.217	0.0079	34.08			
31.233	0.0080	34.15			
31.250	0.0080	34.19			
31.267	0.0080	34.24			
31.283	0.0080	34.30			
31.300	0.0079	34.36			
31.317	0.0079	34.42			
31.333	0.0079	34.56			
31.350	0.0080	34.50			
31.367	0.0082	34.54			
31.383	0.0082	34.62			
31.400	0.0082	34.67			
31.417	0.0082	34.73			
31.433	0.0082	34.77			
31.450	0.0082	34.82			
31.467	0.0081	34.88			
31.483	0.0082	34.94			
31.500	0.0083	34.99			
31.517	0.0083	35.05			
31.533	0.0082	35.11			
31.550	0.0082	35.14			
31.567	0.0082	35.20			
31.583	0.0084	35.25			
31.600	0.0083	35.31			
31.617	0.0084	35.35			
31.633	0.0084	35.42			
31.650	0.0084	35.48			
31.667	0.0086	35.52			
31.683	0.0086	35.57			
31.700	0.0086	35.61			
31.717	0.0085	35.69			
31.733	0.0085	35.72			
31.750	0.0085	35.78			
31.767	0.0086	35.84			
31.783	0.0086	35.89			
31.800	0.0087	35.94			
31.817	0.0087	36.00			
31.833	0.0086	36.06			
31.850	0.0085	36.13			
31.867	0.0086	36.20			
31.883	0.0087	36.24			
31.900	0.0086	36.32			
31.917	0.0087	36.41			
31.933	0.0088	36.50			
31.950	0.0087	36.55			
31.967	0.0087	36.61			
31.983	0.0089	36.66			
32.000	0.0090	36.70			
32.017	0.0090	36.76			
32.033	0.0090	36.82			
32.050	0.0090	36.87			
32.067	0.0089	36.93			
32.083	0.0090	36.99			
32.100	0.0090	37.02			
32.117	0.0091	37.08			
32.133	0.0091	37.13			
32.150	0.0091	37.18			
32.167	0.0092	37.24			
32.183	0.0092	37.31			
32.200	0.0092	37.34			
32.217	0.0093	37.40			
32.233	0.0093	37.47			
32.250	0.0093	37.51			
32.267	0.0094	37.57			
32.283	0.0094	37.63			
32.300	0.0094	37.68			
32.317	0.0094	37.74			
32.333	0.0095	37.77			
32.350	0.0095	37.83			
32.367	0.0096	37.89			
32.383	0.0097	37.94			
32.400	0.0097	38.00			
32.417	0.0096	38.06			
32.433	0.0097	38.09			
32.450	0.0097	38.14			
32.467	0.0098	38.20			
32.483	0.0098	38.26			
32.500	0.0098	38.32			
32.517	0.0098	38.38			
32.533	0.0098	38.43			
32.550	0.0098	38.48			
32.567	0.0099	38.54			
32.583	0.0100	38.58			
32.600	0.0100	38.64			
32.617	0.0100	38.69			
32.633	0.0101	38.75			
32.650	0.0102	38.80			
32.667	0.0101	38.84			
32.683	0.0101	38.89			
32.700	0.0102	38.95			
32.717	0.0103	39.01			
32.733	0.0103	39.07			
32.750	0.0102	39.12			
32.767	0.0103	39.16			
32.783	0.0103	39.23			
32.800	0.0105	39.29			
32.817	0.0105	39.35			
32.833	0.0105	39.41			
32.850	0.0105	39.45			
32.867	0.0105	39.50			
32.883	0.0106	39.55			
32.900	0.0107	39.61			
32.917	0.0107	39.67			
32.933	0.0108	39.73			
32.950	0.0108	39.78			
32.967	0.0108	39.84			
32.983	0.0109	39.88			
33.000	0.0110	40.03			
33.017	0.0110	40.01			
33.033	0.0110	40.07			
33.050	0.0111	40.13			
33.067	0.0111	40.19			
33.083	0.0111	40.36			
33.100	0.0112	40.42			
33.117	0.0112	40.49			
33.133	0.0113	40.56			
33.150	0.0114	40.62			
33.167	0.0114	40.57			
33.183	0.0114	40.62			
33.200	0.0115	40.68			
33.217	0.0116	40.85			
33.233	0.0115	40.89			
33.250	0.0115	40.95			
33.267	0.0116	40.89			
33.283	0.0116	41.05			
33.300	0.0117	41.09			
33.317	0.0118	41.14			
33.333	0.0118	41.09			
33.350	0.0119	41.26			
33.367	0.0119	41.32			
33.383	0.0119	41.37			
33.400	0.0120	41.31			
33.417	0.0121	41.46			
33.433	0.0123	41.52			
33.450	0.0124	41.58			
33.467	0.0124	41.63			
33.483	0.0124	41.69			
33.500	0.0124	41.74			
33.517	0.0126	41.69			
33.533	0.0126	41.84			
33.550	0.0127	41.89			
33.567	0.0127	41.94			
33.583	0.0128	42.00			
33.600	0.0128	42.04			
33.617	0.0129	42.10			
33.633	0.0129	42.14			
33.650	0.0130	42.18			
33.667	0.0131	42.24			
33.683	0.0133	42.32			
33.700	0.0134	42.35			
33.717	0.0134	42.40			
33.733	0.0135	42.46			
33.750	0.0136	42.50			
33.767	0.0137	42.58			
33.783	0.0138	42.63			
33.800	0.0139	42.69			
33.817	0.0139	42.75			
33.833	0.0139	42.78			
33.850	0.0140	42.83			
33.867	0.0141	42.90			
33.883	0.0142	42.95			
33.900	0.0144	42.99			
33.917	0.0145	43.06			
33.933	0.0146	43.09			
33.950	0.0146	43.13			
33.967	0.0148	43.19			
33.983	0.0149	43.24			
34.000	0.0149	43.30			
34.017	0.0151	43.36			
34.033	0.0153	43.39			
34.050	0.0155	43.44			
34.067	0.0157	43.50			
34.083	0.0157	43.56			
34.100	0.0157	43.62			
34.117	0.0158	43.68			
34.133	0.0159	43.73			
34.150	0.0161	43.76			
34.167	0.0163	43.82			
34.183	0.0163	43.88			
34.200	0.0165	43.93			
34.217	0.0167	43.99			
34.233	0.0169	44.05			
34.250	0.0170	44.11			
34.267	0.0172	44.16			
34.283	0.0173	44.24			
34.300	0.0174	44.30			
34.317	0.0176	44.36			
34.333	0.0177	44.41			
34.350	0.0178	44.47			
34.367	0.0179	44.53			
34.383	0.0181	44.59			
34.400	0.0184	44.65			
34.417	0.0185	44.71			
34.433	0.0186	44.76			
34.450	0.0188	44.80			
34.467	0.0190	44.87			
34.483	0.0192	44.93			
34.500	0.0194	44.94			
34.517	0.0195	45.00			
34.533	0.0196	45.05			
34.550	0.0198	45.11			
34.567	0.0200	45.17			
34.583	0.0202	45.22			
34.600	0.0205	45.26			
34.617	0.0207	45.34			
34.633	0.0208	45.40			
34.650	0.0210	45.43			
34.667	0.0212	45.49			
34.683	0.0214	45.53			
34.700	0.0216	45.57			
34.717	0.0218	45.63			
34.733	0.0220	45.68			
34.750	0.0221	45.74			
34.767	0.0224	45.79			
34.783	0.0227	45.85			
34.800	0.0229	45.88			
34.817	0.0231	45.94			
34.833	0.0233	45.99			
34.850	0.0236	46.05			
34.867	0.0237	46.11			
34.883	0.0238	46.14			
34.900	0.0240	46.20			
34.917	0.0244	46.23			
34.933	0.0246	46.28			
34.950	0.0248	46.34			
34.967	0.0250	46.38			
34.983	0.0252	46.43			
35.000	0.0254	46.49			
35.017	0.0256	46.52			
35.033	0.0259	46.58			
35.050	0.0261	46.63			
35.067	0.0263	46.68			
35.083	0.0265	46.74			
35.100	0.0268	46.80			
35.117	0.0270	46.84			
35.133	0.0272	46.91			
35.150	0.0274	46.94			
35.167	0.0276	47.00			
35.183	0.0279	47.04			
35.200	0.0281	47.11			
35.217	0.0284	47.15			
35.233	0.0286	47.20			
35.250	0.0288	47.23			
35.267	0.0289	47.29			
35.283	0.0292	47.35			
35.300	0.0294	47.40			
35.317	0.0297	47.46			
35.333	0.0298	47.49			
35.350	0.0300	47.53			
35.367	0.0303	47.61			
35.383	0.0306	47.64			
35.400	0.0308	47.69			
35.417	0.0309	47.76			
35.433	0.0312	47.80			
35.450	0.0313	47.86			
35.467	0.0316	47.90			
35.483	0.0318	47.96			
35.500	0.0320	48.03			
35.517	0.0322	48.09			
35.533	0.0324	48.18			
35.550	0.0326	48.24			
35.567	0.0328	48.30			
35.583	0.0330	48.36			
35.600	0.0331	48.44			
35.617	0.0333	48.50			
35.633	0.0334	48.55			
35.650	0.0337	48.59			
35.667	0.0340	48.65			
35.683	0.0341	48.72			
35.700	0.0342	48.76			
35.717	0.0344	48.79			
35.733	0.0346	48.85			
35.750	0.0347	48.92			
35.767	0.0348	48.98			
35.783	0.0350	49.02			
35.800	0.0351	49.07			
35.817	0.0353	49.11			
35.833	0.0354	49.16			
35.850	0.0355	49.24			
35.867	0.0356	49.30			
35.883	0.0358	49.34			
35.900	0.0360	49.39			
35.917	0.0360	49.45			
35.933	0.0361	49.51			
35.950	0.0363	49.57			
35.967	0.0364	49.62			
35.983	0.0365	49.68			
36.000	0.0365	49.71			
36.017	0.0366	49.76			
36.033	0.0367	49.82			
36.050	0.0368	49.87			
36.067	0.0369	49.90			
36.083	0.0370	49.94			
36.100	0.0370	49.97			
36.117	0.0371	50.07			
36.133	0.0372	50.13			
36.150	0.0373	50.16			
36.167	0.0374	50.22			
36.183	0.0374	50.27			
36.200	0.0375	50.33			
36.217	0.0375	50.40			
36.233	0.0376	50.43			
36.250	0.0377	50.48			
36.267	0.0377	50.54			
36.283	0.0377	50.59			
36.300	0.0377	50.66			
36.317	0.0377	50.73			
36.333	0.0377	50.74			
36.350	0.0378	50.80			
36.367	0.0378	50.86			
36.383	0.0378	50.91			
36.400	0.0378	50.97			
36.417	0.0379	51.03			
36.433	0.0378	51.08			
36.450	0.0377	51.11			
36.467	0.0377	51.15			
36.483	0.0377	51.22			
36.500	0.0377	51.28			
36.517	0.0377	51.32			
36.533	0.0378	51.38			
36.550	0.0378	51.42			
36.567	0.0378	51.46			
36.583	0.0377	51.52			
36.600	0.0378	51.58			
36.617	0.0377	51.65			
36.633	0.0375	51.71			
36.650	0.0375	51.75			
36.667	0.0375	51.80			
36.683	0.0374	51.89			
36.700	0.0374	51.98			
36.717	0.0373	52.08			
36.733	0.0372	52.15			
36.750	0.0372	52.23			
36.767	0.0372	52.31			
36.783	0.0370	52.35			
36.800	0.0369	52.40			
36.817	0.0369	52.43			
36.833	0.0368	52.49			
36.850	0.0368	52.52			
36.867	0.0367	52.57			
36.883	0.0367	52.60			
36.900	0.0366	52.61			
36.917	0.0364	52.66			
36.933	0.0364	52.72			
36.950	0.0362	52.77			
36.967	0.0360	52.84			
36.983	0.0359	52.87			
37.000	0.0358	52.92			
37.017	0.0356	52.98			
37.033	0.0355	53.01			
37.050	0.0353	53.06			
37.067	0.0352	53.15			
37.083	0.0350	53.19			
37.100	0.0349	53.24			
37.117	0.0348	53.27			
37.133	0.0348	53.32			
37.150	0.0347	53.38			
37.167	0.0346	53.44			
37.183	0.0343	53.50			
37.200	0.0341	53.53			
37.217	0.0339	53.59			
37.233	0.0338	53.64			
37.250	0.0337	53.70			
37.267	0.0336	53.75			
37.283	0.0334	53.81			
37.300	0.0333	53.84			
37.317	0.0331	53.90			
37.333	0.0329	53.95			
37.350	0.0328	54.01			
37.367	0.0328	54.05			
37.383	0.0327	54.12			
37.400	0.0327	54.19			
37.417	0.0326	54.22			
37.433	0.0324	54.28			
37.450	0.0321	54.33			
37.467	0.0320	54.36			
37.483	0.0318	54.42			
37.500	0.0315	54.50			
37.517	0.0312	54.54			
37.533	0.0311	54.59			
37.550	0.0309	54.64			
37.567	0.0307	54.70			
37.583	0.0305	54.73			
37.600	0.0303	54.77			
37.617	0.0301	54.87			
37.633	0.0299	54.93			
37.650	0.0297	54.97			
37.667	0.0295	55.02			
37.683	0.0293	55.05			
37.700	0.0290	55.08			
37.717	0.0288	55.14			
37.733	0.0286	55.20			
37.750	0.0284	55.25			
37.767	0.0281	55.30			
37.783	0.0279	55.36			
37.800	0.0276	55.40			
37.817	0.0273	55.45			
37.833	0.0271	55.53			
37.850	0.0269	55.59			
37.867	0.0267	55.63			
37.883	0.0264	55.68			
37.900	0.0263	55.74			
37.917	0.0259	55.79			
37.933	0.0257	55.85			
37.950	0.0254	55.94			
37.967	0.0252	55.99			
37.983	0.0249	56.03			
38.000	0.0247	56.11			
38.017	0.0245	56.19			
38.033	0.0243	56.26			
38.050	0.0240	56.32			
38.067	0.0237	56.35			
38.083	0.0234	56.40			
38.100	0.0232	56.45			
38.117	0.0230	56.51			
38.133	0.0228	56.55			
38.150	0.0225	56.63			
38.167	0.0223	56.69			
38.183	0.0220	56.72			
38.200	0.0217	56.77			
38.217	0.0214	56.81			
38.233	0.0212	56.88			
38.250	0.0209	56.94			
38.267	0.0206	57.01			
38.283	0.0204	57.04			
38.300	0.0202	57.09			
38.317	0.0199	57.15			
38.333	0.0196	57.20			
38.350	0.0194	57.24			
38.367	0.0192	57.29			
38.383	0.0189	57.37			
38.400	0.0187	57.41			
38.417	0.0183	57.47			
38.433	0.0181	57.52			
38.450	0.0178	57.57			
38.467	0.0177	57.61			
38.483	0.0174	57.67			
38.500	0.0172	57.74			
38.517	0.0169	57.80			
38.533	0.0168	57.84			
38.550	0.0166	57.89			
38.567	0.0164	57.95			
38.583	0.0161	58.00			
38.600	0.0159	58.04			
38.617	0.0157	58.12			
38.633	0.0154	58.16			
38.650	0.0151	58.23			
38.667	0.0148	58.27			
38.683	0.0147	58.33			
38.700	0.0145	58.38			
38.717	0.0143	58.44			
38.733	0.0140	58.49			
38.750	0.0136	58.56			
38.767	0.0133	58.61			
38.783	0.0132	58.67			
38.800	0.0131	58.72			
38.817	0.0130	58.76			
38.833	0.0129	58.79			
38.850	0.0128	58.84			
38.867	0.0126	58.92			
38.883	0.0125	58.98			
38.900	0.0124	59.02			
38.917	0.0122	59.08			
38.933	0.0120	59.13			
38.950	0.0119	59.18			
38.967	0.0117	59.21			
38.983	0.0116	59.28			
39.000	0.0113	59.36			
39.017	0.0113	59.41			
39.033	0.0112	59.47			
39.050	0.0110	59.51			
39.067	0.0108	59.55			
39.083	0.0107	59.61			
39.100	0.0105	59.67			
39.117	0.0103	59.73			
39.133	0.0101	59.81			
39.150	0.0099	59.87			
39.167	0.0099	59.93			
39.183	0.0098	59.97			
39.200	0.0097	60.04			
39.217	0.0095	60.11			
39.233	0.0094	60.19			
39.250	0.0092	60.24			
39.267	0.0091	60.30			
39.283	0.0091	60.34			
39.300	0.0090	60.39			
39.317	0.0088	60.43			
39.333	0.0086	60.48			
39.350	0.0084	60.54			
39.367	0.0082	60.62			
39.383	0.0081	60.65			
39.400	0.0082	60.70			
39.417	0.0082	60.76			
39.433	0.0080	60.80			
39.450	0.0079	60.85			
39.467	0.0078	60.91			
39.483	0.0077	60.96			
39.500	0.0077	61.03			
39.517	0.0076	61.09			
39.533	0.0074	61.12			
39.550	0.0073	61.17			
39.567	0.0073	61.23			
39.583	0.0072	61.28			
39.600	0.0071	61.32			
39.617	0.0071	61.39			
39.633	0.0071	61.48			
39.650	0.0069	61.52			
39.667	0.0068	61.55			
39.683	0.0068	61.62			
39.700	0.0068	61.66			
39.717	0.0067	61.71			
39.733	0.0067	61.75			
39.750	0.0066	61.82			
39.767	0.0065	61.89			
39.783	0.0064	61.95			
39.800	0.0064	62.00			
39.817	0.0063	62.03			
39.833	0.0063	62.09			
39.850	0.0062	62.14			
39.867	0.0062	62.18			
39.883	0.0061	62.24			
39.900	0.0061	62.32			
39.917	0.0061	62.37			
39.933	0.0059	62.43			
39.950	0.0059	62.47			
39.967	0.0058	62.52			
39.983	0.0058	62.57			
40.000	0.0058	62.61			
40.017	0.0057	62.66			
40.033	0.0057	62.72			
40.050	0.0056	62.80			
40.067	0.0056	62.84			
40.083	0.0055	62.89			
40.100	0.0054	62.93			
40.117	0.0054	63.00			
40.133	0.0055	63.04			
40.150	0.0055	63.09			
40.167	0.0055	63.15			
40.183	0.0053	63.21			
40.200	0.0053	63.26			
40.217	0.0053	63.32			
40.233	0.0053	63.36			
40.250	0.0052	63.41			
40.267	0.0052	63.47			
40.283	0.0051	63.50			
40.300	0.0051	63.56			
40.317	0.0051	63.61			
40.333	0.0051	63.69			
40.350	0.0051	63.75			
40.367	0.0050	63.79			
40.383	0.0050	63.86			
40.400	0.0049	63.92			
40.417	0.0050	63.98			
40.433	0.0051	64.02			
40.450	0.0050	64.10			
40.467	0.0050	64.16			
40.483	0.0049	64.22			
40.500	0.0049	64.28			
40.517	0.0048	64.32			
40.533	0.0048	64.36			
40.550	0.0049	64.41			
40.567	0.0048	64.45			
40.583	0.0048	64.50			
40.600	0.0047	64.55			
40.617	0.0047	64.64			
40.633	0.0046	64.70			
40.650	0.0047	64.74			
40.667	0.0048	64.79			
40.683	0.0048	64.82			
40.700	0.0047	64.87			
40.717	0.0046	64.93			
40.733	0.0046	64.97			
40.750	0.0046	65.02			
40.767	0.0045	65.07			
40.783	0.0045	65.14			
40.800	0.0045	65.19			
40.817	0.0045	65.24			
40.833	0.0045	65.30			
40.850	0.0045	65.34			
40.867	0.0045	65.39			
40.883	0.0045	65.42			
40.900	0.0044	65.47			
40.917	0.0044	65.53			
40.933	0.0045	65.59			
40.950	0.0045	65.65			
40.967	0.0044	65.71			
40.983	0.0043	65.74			
41.000	0.0044	65.79			
41.017	0.0045	65.83			
41.033	0.0045	65.88			
41.050	0.0045	65.93			
41.067	0.0044	65.97			
41.083	0.0043	66.02			
41.100	0.0042	66.08			
41.117	0.0042	66.14			
41.133	0.0042	66.19			
41.150	0.0042	66.23			
41.167	0.0041	66.28			
41.183	0.0040	66.32			
41.200	0.0040	66.39			
41.217	0.0041	66.42			
41.233	0.0041	66.46			
41.250	0.0041	66.51			
41.267	0.0041	66.55			
41.283	0.0041	66.63			
41.300	0.0040	66.69			
41.317	0.0041	66.74			
41.333	0.0041	66.78			
41.350	0.0041	66.83			
41.367	0.0042	66.88			
41.383	0.0041	66.92			
41.400	0.0040	66.98			
41.417	0.0040	67.01			
41.433	0.0040	67.06			
41.450	0.0040	67.14			
41.467	0.0039	67.20			
41.483	0.0039	67.26			
41.500	0.0040	67.31			
41.517	0.0039	67.35			
41.533	0.0039	67.40			
41.550	0.0039	67.44			
41.567	0.0040	67.49			
41.583	0.0040	67.57			
41.600	0.0041	67.63			
41.617	0.0040	67.74			
41.633	0.0040	67.80			
41.650	0.0040	67.87			
41.667	0.0039	67.94			
41.683	0.0038	68.00			
41.700	0.0038	68.04			
41.717	0.0038	68.10			
41.733	0.0038	68.18			
41.750	0.0039	68.23			
41.767	0.0040	68.26			
41.783	0.0039	68.30			
41.800	0.0039	68.33			
41.817	0.0039	68.38			
41.833	0.0039	68.44			
41.850	0.0039	68.47			
41.867	0.0038	68.50			
41.883	0.0037	68.55			
41.900	0.0037	68.59			
41.917	0.0038	68.64			
41.933	0.0038	68.72			
41.950	0.0038	68.78			
41.967	0.0038	68.82			
41.983	0.0037	68.87			
42.000	0.0037	68.92			
42.017	0.0036	68.95			
42.033	0.0036	68.99			
42.050	0.0036	69.06			
42.067	0.0036	69.10			
42.083	0.0036	69.13			
42.100	0.0037	69.16			
42.117	0.0037	69.22			
42.133	0.0036	69.30			
42.150	0.0036	69.35			
42.167	0.0036	69.38			
42.183	0.0036	69.42			
42.200	0.0035	69.47			
42.217	0.0036	69.52			
42.233	0.0037	69.56			
42.250	0.0037	69.61			
42.267	0.0037	69.65			
42.283	0.0036	69.70			
42.300	0.0036	69.73			
42.317	0.0035	69.78			
42.333	0.0035	69.87			
42.350	0.0036	69.91			
42.367	0.0036	69.96			
42.383	0.0036	70.01			
42.400	0.0035	70.04			
42.417	0.0035	70.08			
42.433	0.0035	70.13			
42.450	0.0035	70.17			
42.467	0.0035	70.22			
42.483	0.0035	70.25			
42.500	0.0034	70.30			
42.517	0.0034	70.34			
42.533	0.0035	70.42			
42.550	0.0035	70.47			
42.567	0.0035	70.53			
42.583	0.0036	70.57			
42.600	0.0036	70.60			
42.617	0.0035	70.65			
42.633	0.0036	70.68			
42.650	0.0035	70.73			
42.667	0.0035	70.77			
42.683	0.0035	70.82			
42.700	0.0035	70.88			
42.717	0.0035	70.93			
42.733	0.0035	70.99			
42.750	0.0036	71.05			
42.767	0.0035	71.10			
42.783	0.0034	71.14			
42.800	0.0035	71.19			
42.817	0.0035	71.23			
42.833	0.0034	71.28			
42.850	0.0034	71.33			
42.867	0.0034	71.36			
42.883	0.0034	71.40			
42.900	0.0035	71.46			
42.917	0.0034	71.52			
42.933	0.0035	71.60			
42.950	0.0035	71.63			
42.967	0.0034	71.68			
42.983	0.0034	71.75			
43.000	0.0034	71.80			
43.017	0.0033	71.85			
43.033	0.0033	71.89			
43.050	0.0033	71.92			
43.067	0.0033	71.98			
43.083	0.0033	72.03			
43.100	0.0034	72.08			
43.117	0.0033	72.12			
43.133	0.0033	72.20			
43.150	0.0034	72.26			
43.167	0.0034	72.29			
43.183	0.0033	72.32			
43.200	0.0034	72.37			
43.217	0.0035	72.41			
43.233	0.0034	72.46			
43.250	0.0034	72.52			
43.267	0.0035	72.55			
43.283	0.0034	72.58			
43.300	0.0034	72.64			
43.317	0.0035	72.67			
43.333	0.0034	72.75			
43.350	0.0034	72.81			
43.367	0.0033	72.86			
43.383	0.0032	72.89			
43.400	0.0032	72.95			
43.417	0.0033	73.00			
43.433	0.0032	73.04			
43.450	0.0033	73.07			
43.467	0.0033	73.10			
43.483	0.0032	73.15			
43.500	0.0032	73.18			
43.517	0.0033	73.23			
43.533	0.0032	73.27			
43.550	0.0033	73.33			
43.567	0.0033	73.43			
43.583	0.0032	73.46			
43.600	0.0031	73.50			
43.617	0.0031	73.55			
43.633	0.0031	73.60			
43.650	0.0032	73.63			
43.667	0.0032	73.67			
43.683	0.0032	73.72			
43.700	0.0032	73.75			
43.717	0.0032	73.79			
43.733	0.0031	73.84			
43.750	0.0032	73.89			
43.767	0.0032	73.93			
43.783	0.0033	73.99			
43.800	0.0033	74.06			
43.817	0.0033	74.10			
43.833	0.0031	74.15			
43.850	0.0031	74.32			
43.867	0.0031	74.24			
43.883	0.0031	74.29			
43.900	0.0031	74.46			
43.917	0.0032	74.36			
43.933	0.0033	74.41			
43.950	0.0033	74.57			
43.967	0.0032	74.50			
43.983	0.0032	74.68			
44.000	0.0032	74.71			
44.017	0.0032	74.80			
44.033	0.0031	74.73			
44.050	0.0032	74.89			
44.067	0.0031	74.81			
44.083	0.0031	74.98			
44.100	0.0031	75.03			
44.117	0.0031	75.08			
44.133	0.0031	75.11			
44.150	0.0031	75.14			
44.167	0.0031	75.07			
44.183	0.0031	75.23			
44.200	0.0031	75.29			
44.217	0.0031	75.32			
44.233	0.0030	75.40			
44.250	0.0030	75.46			
44.267	0.0030	75.51			
44.283	0.0031	75.55			
44.300	0.0031	75.47			
44.317	0.0029	75.66			
44.333	0.0030	75.71			
44.350	0.0030	75.75			
44.367	0.0031	75.80			
44.383	0.0031	75.86			
44.400	0.0031	75.92			
44.417	0.0031	75.97			
44.433	0.0029	76.01			
44.450	0.0030	75.97			
44.467	0.0030	76.09			
44.483	0.0029	76.21			
44.500	0.0030	76.28			
44.517	0.0029	76.32			
44.533	0.0029	76.35			
44.550	0.0029	76.40			
44.567	0.0029	76.44			
44.583	0.0029	76.48			
44.600	0.0029	76.51			
44.617	0.0029	76.57			
44.633	0.0029	76.60			
44.650	0.0029	76.64			
44.667	0.0029	76.72			
44.683	0.0029	76.78			
44.700	0.0029	76.83			
44.717	0.0029	76.87			
44.733	0.0029	76.92			
44.750	0.0029	76.97			
44.767	0.0029	77.01			
44.783	0.0030	77.06			
44.800	0.0029	77.09			
44.817	0.0028	77.12			
44.833	0.0028	77.17			
44.850	0.0029	77.21			
44.867	0.0028	77.26			
44.883	0.0028	77.31			
44.900	0.0028	77.32			
44.917	0.0027	77.40			
44.933	0.0028	77.49			
44.950	0.0028	77.52			
44.967	0.0028	77.58			
44.983	0.0028	77.63			
45.000	0.0027	77.66			
45.017	0.0027	77.70			
45.033	0.0028	77.74			
45.050	0.0028	77.78			
45.067	0.0028	77.84			
45.083	0.0028	77.89			
45.100	0.0028	77.92			
45.117	0.0027	77.95			
45.133	0.0027	78.01			
45.150	0.0027	78.04			
45.167	0.0028	78.10			
45.183	0.0028	78.18			
45.200	0.0028	78.24			
45.217	0.0028	78.27			
45.233	0.0028	78.30			
45.250	0.0027	78.35			
45.267	0.0028	78.40			
45.283	0.0028	78.44			
45.300	0.0028	78.49			
45.317	0.0028	78.53			
45.333	0.0027	78.58			
45.350	0.0028	78.60			
45.367	0.0028	78.66			
45.383	0.0027	78.70			
45.400	0.0026	78.75			
45.417	0.0027	78.78			
45.433	0.0028	78.87			
45.450	0.0027	78.93			
45.467	0.0026	78.96			
45.483	0.0027	79.01			
45.500	0.0027	79.06			
45.517	0.0026	79.12			
45.533	0.0026	79.15			
45.550	0.0026	79.18			
45.567	0.0027	79.23			
45.583	0.0027	79.27			
45.600	0.0026	79.32			
45.617	0.0026	79.35			
45.633	0.0026	79.43			
45.650	0.0026	79.50			
45.667	0.0026	79.63			
45.683	0.0026	79.69			
45.700	0.0027	79.70			
45.717	0.0027	79.75			
45.733	0.0027	79.81			
45.750	0.0026	79.87			
45.767	0.0025	79.96			
45.783	0.0026	80.06			
45.800	0.0027	80.15			
45.817	0.0026	80.22			
45.833	0.0025	80.32			
45.850	0.0024	80.44			
45.867	0.0026	80.53			
45.883	0.0027	80.62			
45.900	0.0026	80.69			
45.917	0.0026	80.76			
45.933	0.0026	80.84			
45.950	0.0025	80.92			
45.967	0.0025	80.99			
45.983	0.0026	81.07			
46.000	0.0026	81.18			
46.017	0.0026	81.25			
46.033	0.0025	81.32			
46.050	0.0025	81.39			
46.067	0.0025	81.47			
46.083	0.0025	81.53			
46.100	0.0025	81.61			
46.117	0.0025	81.67			
46.133	0.0024	81.73			
46.150	0.0023	81.66			
46.167	0.0023	81.77			
46.183	0.0024	81.85			
46.200	0.0024	81.92			
46.217	0.0023	81.99			
46.233	0.0022	82.05			
46.250	0.0022	82.11			
46.267	0.0022	82.18			
46.283	0.0022	82.23			
46.300	0.0022	82.29			
46.317	0.0023	82.34			
46.333	0.0022	82.43			
46.350	0.0022	82.55			
46.367	0.0022	82.60			
46.383	0.0022	82.65			
46.400	0.0023	82.71			
46.417	0.0022	82.77			
46.433	0.0022	82.83			
46.450	0.0021	82.91			
46.467	0.0021	82.97			
46.483	0.0021	83.03			
46.500	0.0020	83.07			
46.517	0.0021	83.14			
46.533	0.0022	83.21			
46.550	0.0021	83.32			
46.567	0.0021	83.38			
46.583	0.0021	83.44			
46.600	0.0021	83.50			
46.617	0.0021	83.60			
46.633	0.0021	83.66			
46.650	0.0021	83.70			
46.667	0.0020	83.78			
46.683	0.0021	83.86			
46.700	0.0021	83.90			
46.717	0.0021	83.96			
46.733	0.0021	84.06			
46.750	0.0020	84.15			
46.767	0.0021	84.21			
46.783	0.0021	84.27			
46.800	0.0021	84.33			
46.817	0.0020	84.41			
46.833	0.0020	84.47			
46.850	0.0020	84.52			
46.867	0.0020	84.58			
46.883	0.0019	84.62			
46.900	0.0020	84.67			
46.917	0.0020	84.73			
46.933	0.0019	84.79			
46.950	0.0020	84.88			
46.967	0.0020	84.99			
46.983	0.0019	85.04			
47.000	0.0019	85.10			
47.017	0.0019	85.16			
47.033	0.0020	85.21			
47.050	0.0020	85.27			
47.067	0.0020	85.33			
47.083	0.0020	85.38			
47.100	0.0020	85.44			
47.117	0.0019	85.50			
47.133	0.0019	85.56			
47.150	0.0018	85.62			
47.167	0.0018	85.70			
47.183	0.0018	85.79			
47.200	0.0018	85.85			
47.217	0.0018	85.93			
47.233	0.0018	85.97			
47.250	0.0017	86.04			
47.267	0.0018	86.10			
47.283	0.0018	86.16			
47.300	0.0018	86.22			
47.317	0.0018	86.27			
47.333	0.0017	86.33			
47.350	0.0018	86.39			
47.367	0.0019	86.45			
47.383	0.0019	86.48			
47.400	0.0018	86.54			
47.417	0.0017	86.69			
47.433	0.0018	86.76			
47.450	0.0019	86.82			
47.467	0.0019	86.86			
47.483	0.0018	86.91			
47.500	0.0017	86.99			
47.517	0.0018	87.05			
47.533	0.0018	87.11			
47.550	0.0017	87.15			
47.567	0.0018	87.23			
47.583	0.0017	87.31			
47.600	0.0018	87.37			
47.617	0.0017	87.51			
47.633	0.0018	87.61			
47.650	0.0018	87.68			
47.667	0.0019	87.75			
47.683	0.0018	87.83			
47.700	0.0017	87.88			
47.717	0.0018	87.94			
47.733	0.0018	88.00			
47.750	0.0018	88.04			
47.767	0.0018	88.12			
47.783	0.0018	88.17			
47.800	0.0019	88.24			
47.817	0.0018	88.21			
47.833	0.0017	88.27			
47.850	0.0017	88.47			
47.867	0.0017	88.55			
47.883	0.0018	88.61			
47.900	0.0017	88.67			
47.917	0.0016	88.73			
47.933	0.0017	88.78			
47.950	0.0017	88.84			
47.967	0.0017	88.90			
47.983	0.0018	88.96			
48.000	0.0017	89.03			
48.017	0.0017	89.09			
48.033	0.0017	89.13			
48.050	0.0018	89.26			
48.067	0.0018	89.36			
48.083	0.0018	89.41			
48.100	0.0017	89.47			
48.117	0.0016	89.53			
48.133	0.0017	89.59			
48.150	0.0017	89.67			
48.167	0.0018	89.73			
48.183	0.0017	89.79			
48.200	0.0017	89.87			
48.217	0.0017	89.93			
48.233	0.0017	89.98			
48.250	0.0017	90.05			
48.267	0.0016	90.12			
48.283	0.0017	90.04			
48.300	0.0017	90.02			
48.317	0.0016	90.28			
48.333	0.0016	90.41			
48.350	0.0016	90.48			
48.367	0.0016	90.54			
48.383	0.0016	90.61			
48.400	0.0016	90.67			
48.417	0.0016	90.73			
48.433	0.0016	90.79			
48.450	0.0016	90.87			
48.467	0.0016	90.93			
48.483	0.0016	90.99			
48.500	0.0016	91.07			
48.517	0.0016	91.20			
48.533	0.0016	91.28			
48.550	0.0015	91.36			
48.567	0.0014	91.43			
48.583	0.0015	91.50			
48.600	0.0015	91.59			
48.617	0.0016	91.05			
48.633	0.0015	91.39			
48.650	0.0014	91.56			
48.667	0.0014	91.51			
48.683	0.0015	91.30			
48.700	0.0015	91.24			
48.717	0.0016	91.31			
48.733	0.0017	91.36			
48.750	0.0016	91.34			
48.767	0.0015	91.38			
48.783	0.0014	91.42			
48.800	0.0014	91.48			
48.817	0.0015	91.59			
48.833	0.0016	91.73			
48.850	0.0018	91.82			
48.867	0.0021	91.91			
48.883	0.0023	92.01			
48.900	0.0026	92.10			
48.917	0.0029	92.21			
48.933	0.0031	92.30			
48.950	0.0034	92.39			
48.967	0.0036	92.47			
48.983	0.0037	92.59			
49.000	0.0039	92.78			
49.017	0.0040	92.89			
49.033	0.0041	92.96			
49.050	0.0042	93.07			
49.067	0.0044	93.16			
49.083	0.0046	93.27			
49.100	0.0048	93.36			
49.117	0.0050	93.46			
49.133	0.0052	93.56			
49.150	0.0053	93.70			
49.167	0.0053	93.80			
49.183	0.0052	93.87			
49.200	0.0050	93.93			
49.217	0.0048	94.03			
49.233	0.0045	94.09			
49.250	0.0042	94.18			
49.267	0.0040	94.24			
49.283	0.0037	94.30			
49.300	0.0034	94.38			
49.317	0.0032	94.43			
49.333	0.0031	94.33			
49.350	0.0030	94.40			
49.367	0.0029	94.57			
49.383	0.0028	94.59			
49.400	0.0028	94.63			
49.417	0.0027	94.71			
49.433	0.0025	94.76			
49.450	0.0024	94.80			
49.467	0.0023	94.87			
49.483	0.0023	94.91			
49.500	0.0023	94.94			
49.517	0.0022	95.00			
49.533	0.0022	95.03			
49.550	0.0022	95.08			
49.567	0.0022	95.11			
49.583	0.0021	95.14			
49.600	0.0020	95.19			
49.617	0.0020	95.22			
49.633	0.0020	95.25			
49.650	0.0019	95.27			
49.667	0.0018	95.31			
49.683	0.0017	95.19			
49.700	0.0017	95.24			
49.717	0.0018	95.33			
49.733	0.0019	95.38			
49.750	0.0018	95.41			
49.767	0.0017	95.45			
49.783	0.0017	95.47			
49.800	0.0018	95.48			
49.817	0.0017	95.51			
49.833	0.0016	95.56			
49.850	0.0016	95.57			
49.867	0.0016	95.59			
49.883	0.0016	95.61			
49.900	0.0016	95.65			
49.917	0.0016	95.68			
49.933	0.0015	95.70			
49.950	0.0014	95.70			
49.967	0.0014	95.73			
49.983	0.0015	95.76			
50.000	0.0015	95.76			
50.017	0.0015	95.79			
50.033	0.0015	95.82			
50.050	0.0015	95.84			
50.067	0.0014	95.87			
50.083	0.0014	95.87			
50.100	0.0014	95.88			
50.117	0.0013	95.90			
50.133	0.0013	95.74			
50.150	0.0013	95.76			
50.167	0.0013	95.79			
50.183	0.0013	95.81			
50.200	0.0013	95.82			
50.217	0.0013	95.84			
50.233	0.0013	95.85			
50.250	0.0013	95.85			
50.267	0.0012	95.87			
50.283	0.0012	95.88			
50.300	0.0012	95.91			
50.317	0.0013	95.91			
50.333	0.0013	95.93			
50.350	0.0012	95.94			
50.367	0.0012	95.96			
50.383	0.0012	95.97			
50.400	0.0013	95.99			
50.417	0.0013	96.01			
50.433	0.0013	96.01			
50.450	0.0012	96.02			
50.467	0.0012	96.02			
50.483	0.0011	96.02			
50.500	0.0012	96.04			
50.517	0.0011	96.05			
50.533	0.0011	96.07			
50.550	0.0011	96.07			
50.567	0.0011	96.07			
50.583	0.0011	96.07			
50.600	0.0010	96.08			
50.617	0.0010	96.07			
50.633	0.0011	96.10			
50.650	0.0012	96.16			
50.667	0.0012	96.24			
50.683	0.0012	96.24			
50.700	0.0011	96.25			
50.717	0.0010	96.25			
50.733	0.0011	96.25			
50.750	0.0011	96.27			
50.767	0.0011	96.28			
50.783	0.0011	96.27			
50.800	0.0011	96.27			
50.817	0.0010	96.28			
50.833	0.0009	96.30			
50.850	0.0010	96.30			
50.867	0.0010	96.30			
50.883	0.0010	96.30			
50.900	0.0010	96.30			
50.917	0.0010	96.33			
50.933	0.0010	96.31			
50.950	0.0009	96.30			
50.967	0.0010	96.33			
50.983	0.0009	96.33			
51.000	0.0009	96.33			
51.017	0.0009	96.33			
51.033	0.0010	96.34			
51.050	0.0010	96.34			
51.067	0.0010	96.34			
51.083	0.0010	96.34			
51.100	0.0011	96.34			
51.117	0.0011	96.36			
51.133	0.0010	96.36			
51.150	0.0009	96.37			
51.167	0.0009	96.37			
51.183	0.0009	96.37			
51.200	0.0010	96.37			
51.217	0.0010	96.37			
51.233	0.0010	96.37			
51.250	0.0010	96.37			
51.267	0.0009	96.37			
51.283	0.0009	96.39			
51.300	0.0009	96.39			
51.317	0.0009	96.39			
51.333	0.0009	96.40			
51.350	0.0010	96.39			
51.367	0.0010	96.39			
51.383	0.0010	96.39			
51.400	0.0009	96.40			
51.417	0.0009	96.40			
51.433	0.0009	96.39			
51.450	0.0010	96.39			
51.467	0.0009	96.40			
51.483	0.0009	96.40			
51.500	0.0009	96.40			
51.517	0.0009	96.39			
51.533	0.0009	96.40			
51.550	0.0008	96.40			
51.567	0.0008	96.40			
51.583	0.0008	96.39			
51.600	0.0009	96.39			
51.617	0.0009	96.39			
51.633	0.0008	96.39			
51.650	0.0009	96.39			
51.667	0.0009	96.39			
51.683	0.0009	96.15			
51.700	0.0009	96.40			
51.717	0.0009	96.39			
51.733	0.0009	96.39			
51.750	0.0009	96.42			
51.767	0.0010	96.40			
51.783	0.0009	96.39			
51.800	0.0009	96.40			
51.817	0.0009	96.42			
51.833	0.0009	96.40			
51.850	0.0009	96.42			
51.867	0.0009	96.42			
51.883	0.0009	96.40			
51.900	0.0009	96.42			
51.917	0.0009	96.42			
51.933	0.0009	96.42			
51.950	0.0008	96.42			
51.967	0.0008	96.17			
51.983	0.0009	96.17			
52.000	0.0009	96.42			
52.017	0.0009	96.17			
52.033	0.0008	96.17			
52.050	0.0009	96.42			
52.067	0.0008	96.42			
52.083	0.0008	96.42			
52.100	0.0009	96.17			
52.117	0.0009	96.18			
52.133	0.0008	96.18			
52.150	0.0008	96.18			
52.167	0.0008	96.42			
52.183	0.0008	96.42			
52.200	0.0008	96.17			
52.217	0.0008	96.18			
52.233	0.0007	96.43			
52.250	0.0008	96.17			
52.267	0.0008	96.17			
52.283	0.0008	96.17			
52.300	0.0008	96.18			
52.317	0.0008	96.18			
52.333	0.0007	96.17			
52.350	0.0007	96.17			
52.367	0.0007	96.17			
52.383	0.0007	96.17			
52.400	0.0008	96.17			
52.417	0.0008	96.15			
52.433	0.0009	96.15			
52.450	0.0008	96.15			
52.467	0.0008	96.17			
52.483	0.0008	96.15			
52.500	0.0008	96.15			
52.517	0.0008	96.15			
52.533	0.0008	96.17			
52.550	0.0008	96.15			
52.567	0.0008	96.15			
52.583	0.0008	96.17			
52.600	0.0008	96.17			
52.617	0.0008	96.17			
52.633	0.0008	96.17			
52.650	0.0007	96.17			
52.667	0.0007	96.17			
52.683	0.0007	96.18			
52.700	0.0007	96.20			
52.717	0.0007	96.18			
52.733	0.0007	96.18			
52.750	0.0007	96.18			
52.767	0.0007	96.18			
52.783	0.0007	96.20			
52.800	0.0008	96.20			
52.817	0.0008	96.18			
52.833	0.0008	96.20			
52.850	0.0008	96.20			
52.867	0.0008	96.20			
52.883	0.0007	96.20			
52.900	0.0008	96.20			
52.917	0.0008	96.18			
52.933	0.0008	96.18			
52.950	0.0008	96.20			
52.967	0.0008	96.20			
52.983	0.0008	96.20			
53.000	0.0009	96.18			
53.017	0.0009	96.18			
53.033	0.0008	96.20			
53.050	0.0007	96.20			
53.067	0.0007	96.18			
53.083	0.0007	96.18			
53.100	0.0008	96.17			
53.117	0.0008	96.18			
53.133	0.0007	96.18			
53.150	0.0007	96.18			
53.167	0.0008	96.18			
53.183	0.0008	96.20			
53.200	0.0008	96.18			
53.217	0.0007	96.20			
53.233	0.0007	96.20			
53.250	0.0008	96.18			
53.267	0.0009	96.18			
53.283	0.0008	96.18			
53.300	0.0007	96.18			
53.317	0.0007	96.18			
53.333	0.0007	96.17			
53.350	0.0007	96.17			
53.367	0.0008	96.18			
53.383	0.0008	96.17			
53.400	0.0007	96.18			
53.417	0.0007	96.18			
53.433	0.0009	96.18			
53.450	0.0008	96.17			
53.467	0.0008	96.18			
53.483	0.0008	96.20			
53.500	0.0008	96.20			
53.517	0.0008	96.18			
53.533	0.0007	96.18			
53.550	0.0008	96.20			
53.567	0.0008	96.20			
53.583	0.0007	96.18			
53.600	0.0007	96.20			
